Fp1,Fp2,C3,C4,Delta,Theta,Alpha,Beta,Gamma
214.41015625,227.1875,120.26171875,158.609375,45368.02771183118,35774.720000103494,8758.83999927302,3837.8216156371027,5048.303676971234
143.45703125,151.14453125,169.15234375,160.7734375,48354.403563171625,68573.07147495636,26352.963852368506,11668.94902966381,4824.0163424946095
135.96484375,140.6171875,144.20703125,140.39453125,6430.552770882223,2498.739385393741,386.83355281532874,2027.4573646047509,4084.1586114889597
205.5390625,197.6953125,168.8046875,172.41796875,24910.30854766871,27768.43122402954,9842.433551842661,8341.46379396014,4539.929382629947
97.37890625,99.79296875,137.8828125,139.1640625,7205.124291574147,6818.190586405579,2271.9615454739455,2816.5420001628922,4691.364900840794
126.37890625,135.3515625,150.43359375,155.7890625,1352.1214886351565,1363.5459105870314,1169.8413981448539,2741.7884325222362,5335.325135920824
160.28125,146.765625,151.44921875,145.83984375,881.1803652641228,1412.1484252119183,1256.3520516312838,2101.4435188722914,5016.120500656083
134.58203125,142.78515625,149.50390625,156.1875,923.4932982862741,818.6544078682177,628.4438645973653,3951.8790921694244,5405.307401597612
144.73046875,157.5703125,150.61328125,152.078125,13568.846501262544,10611.468017550054,3537.6461202965074,3666.913184795329,5084.223957611271
160.01953125,154.796875,156.9453125,156.41796875,4992.721693102835,3293.1956957029747,2194.557938293734,2989.7718011192937,5030.671079211426
121.6953125,121.38671875,135.9296875,132.36328125,33694.54671086933,10150.924535343287,4224.833835476228,3528.4602199932433,5387.206464074765
168.3984375,164.89453125,166.578125,162.72265625,2208.8089457599694,1419.2262384492215,1165.5147823527436,4042.9180031433198,5104.646515095739
140.41015625,132.5390625,162.82421875,154.06640625,4251.681945016797,3126.555318515673,1380.0206846507408,4374.654423209668,5225.464215585925
139.8984375,135.2890625,146.7890625,154.0546875,4759.846203355607,6694.586122364327,2905.9602694107225,6780.936440134919,5304.3496766944845
148.51953125,151.765625,131.8515625,131.6953125,4652.368303589367,3595.376290169467,3299.1351163028767,2951.381782950514,5455.0750404253995
145.9375,145.95703125,173.5625,170.28515625,2041.8201908219125,1647.3215557699812,1717.1027000301265,3513.8387297990075,5002.3932198155035
147.3359375,149.10546875,146.3203125,144.8125,2459.42807030609,2246.657461048104,386.48142894765147,2229.9423629913586,5129.359303324326
148.41015625,145.51171875,154.203125,154.47265625,26371.69658412275,7659.052201660448,1592.4099210363502,2592.926654436399,5110.336802984211
139.30078125,139.48828125,143.46484375,144.3203125,1053.9723712820837,837.2685239467338,1751.2901112480697,3881.6406974422507,5436.514420128329
150.96484375,149.5859375,156.515625,161.7421875,11715.05774129622,1591.192426775136,1373.0224507958908,6378.912092056022,5184.662442489897
135.74609375,136.8828125,147.0234375,143.97265625,2231.0225136989147,1118.2974901996392,1146.0675478865685,2178.524795374771,5181.816660244467
153.13671875,152.8046875,156.53125,153.2578125,1487.8162579860043,2133.2041082398528,1343.824577328086,2762.2362218626167,5430.143509582162
140.11328125,142.26171875,151.609375,154.44140625,4907.842225939427,5539.476949489047,2550.1348987781666,5774.219603733927,5657.740107945401
153.21875,156.2109375,155.81640625,161.875,73521.27949014789,13654.712402136143,4246.101349284017,3421.6563417376965,5423.081390692701
139.7109375,129.265625,153.5703125,140.54296875,2045.6912247192836,1481.0386474580444,1202.9177760353043,3303.0261614200735,5350.520292723048
147.125,142.9296875,154.7421875,154.20703125,3071.676722502988,3297.7890762836096,2043.2595018808452,3960.311088504954,5327.503829698759
137.15234375,150.18359375,139.74609375,148.046875,45293.6500691969,27069.20469930836,3795.638723456619,2930.231804593592,5459.766716281617
147.0078125,142.62890625,148.9921875,163.96875,16355.674199371224,6222.475223944078,2123.213216365371,5626.766907059484,4719.170414498715
142.04296875,134.12890625,157.015625,134.24609375,1761.6656922853495,1912.5874420794491,1863.024991300136,7964.370690143937,4670.150438525459
147.87109375,155.2890625,156.046875,158.44921875,1598.8732065431718,1268.3514909640412,1704.7655089886423,2744.7891046038085,4769.534093520264
132.2109375,133.53125,181.55859375,157.1640625,17456.259673694633,8042.187675055196,1571.3260959013717,2289.9855677795417,4543.788156826924
168.69140625,163.4375,128.48828125,154.08984375,3119.443354169418,1332.2899603864748,1475.199582868386,2457.2985141298923,4800.949904051644
145.1953125,143.91796875,144.29296875,144.28125,1731.314069912402,1302.4611868473985,1037.5112064402053,4057.4403034300994,4549.284556823013
141.078125,144.9296875,155.046875,153.4375,1344.9486151672006,1737.549709410624,1061.4965780737534,2712.072918233145,4538.123790086117
130.78125,130.5,145.3203125,150.80859375,9771.43437001921,13542.024557064622,3145.559861897729,2418.1187704972476,4468.846037482404
166.86328125,168.73828125,154.87890625,153.58984375,1610.9039316039602,1456.3071223419252,909.7620029343954,2152.1029613125825,5075.492614607643
153.9921875,145.3125,163.828125,158.43359375,4333.885025518849,3471.486248199344,1456.6540087796725,2274.5055716716306,5042.031388722553
137.9140625,154.3671875,148.171875,166.08984375,3463.1869820301677,3178.3762278462436,1109.5874935620232,3317.812259288932,5567.327050521372
147.76171875,129.8828125,157.81640625,127.60546875,5156.044748105221,2457.6453237515802,1117.9550293251357,6545.031391474389,5534.474887377141
126.0234375,130.76953125,135.44921875,147.74609375,33642.90889360503,44711.57165261036,10900.2647794928,5642.48581056167,5410.426201794572
170.609375,165.8984375,165.796875,165.77734375,2525.1249452150673,1618.7047108869508,1206.0191258854704,3978.4819091710606,5837.840387624455
127.05859375,128.046875,144.6015625,141.28125,6215.5025741878035,5119.787583985292,1455.9428538808747,5072.9005508342525,5273.824471582579
156.5703125,160.36328125,163.66796875,159.29296875,2985.1513397145895,2436.090745736499,529.3613525401115,3240.207625386891,5635.669038314164
147.3203125,147.796875,140.01171875,144.375,4812.716610512664,3755.8317126077386,1365.3955205509458,2346.7148756741,5442.622159346747
141.609375,139.87890625,156.09375,155.91796875,3651.527388217111,1746.8941662612801,2280.944527048423,6554.391421483963,5682.938793015262
147.5078125,150.3359375,158.80859375,158.0703125,2776.8956248804798,2282.0728071251333,1264.3777803153089,4043.144304434621,5751.297731589609
147.35546875,142.65234375,169.57421875,149.5859375,10562.218668499365,3072.9021262422184,2041.887930448684,4196.198536422024,5777.207795583185
225.0234375,209.1328125,123.23828125,184.09375,17140.71280748554,26262.79031733628,8791.539571426378,5982.830682718987,5854.360618953793
76.23046875,83.73828125,167.99609375,115.73828125,2626.940141982145,1101.5789412336997,630.014707010426,4289.098868306869,5589.429784728093
127.6015625,136.87890625,140.171875,147.56640625,2402.844299511199,1723.7358915186787,1971.6700042070015,3753.9670988708754,5516.819871749222
140.76171875,155.7578125,140.66796875,160.75,57200.63251346502,14070.607718557774,4002.6039302344134,5387.492436072705,5697.707002332125
141.9609375,134.06640625,155.8203125,148.73046875,14000.17424044767,8806.428656146,3085.392202081642,3548.0509494632843,5422.058486005549
155.234375,144.76171875,165.140625,147.19140625,1961.731418966583,6269.7687830160985,2660.763684591962,3626.827421949647,6104.433676355766
145.46484375,148.5859375,154.3359375,161.9296875,1804.8572142675225,1833.0404773663827,1278.805225118387,4464.877834170572,5527.591040796023
152.62890625,148.15234375,158.08984375,158.90234375,1817.3649740018404,1192.7422959457294,1017.8893416754231,5353.285756027482,5881.983491463643
109.95703125,115.296875,125.25390625,137.6796875,58245.57663519461,17882.65562359374,7742.678542277695,3071.161332386395,5873.440583951731
146.26953125,168.234375,167.73046875,166.53125,68059.3443641924,13189.034064208932,4574.087405469141,4681.099423941097,19186.3602726421
156.01953125,139.625,146.375,159.921875,15695.021296421723,16714.020898800933,3149.5199641417726,2895.7036055899594,17666.81684200101
142.32421875,146.08984375,151.984375,147.578125,3813.823800450854,1706.6702547434804,910.6107736103287,2354.9571894622522,17569.17949571114
172.296875,150.97265625,166.15234375,152.03515625,17477.121413209163,8305.597627543992,3744.5657141600445,3358.856545134129,17707.211021767675
131.31640625,154.1015625,151.5078125,158.078125,2428.41037850649,3932.7527165908414,1421.0120908814815,2605.1123824219603,17654.726027466895
152.1640625,135.296875,160.7109375,157.80078125,4122.279305180052,5574.28241800369,2073.9605546990183,2778.1189657573063,17767.112692906896
158.72265625,169.46484375,136.5625,145.1328125,2752.551577024595,2181.281573712101,1302.0140104361283,3640.370490105128,18409.76396446423
121.03125,136.6640625,163.484375,155.6484375,4496.230634245489,3205.0515838247097,924.7513484745468,3560.0896812079236,18206.963406243485
157.58984375,140.55078125,156.66015625,160.08203125,9316.313864883043,15711.958967626064,3691.212080682025,4063.879449545669,18024.954934934656
164.97265625,170.640625,152.25390625,157.515625,1696.4410841710971,3879.301353445833,2175.253929465797,4868.84236037466,18301.855263286074
131.25390625,120.8203125,160.97265625,156.02734375,43221.88289850682,41819.6309772182,14821.737683368692,7276.936229156812,18437.275394639535
147.9765625,153.296875,157.109375,156.91796875,5543.581755503452,5327.971034694941,1291.0442407865319,2997.751749198832,18120.883700355218
141.46484375,143.44140625,145.4921875,150.08203125,16502.63786278935,5402.327906885994,2992.603298039155,5516.581775154098,18032.131271951544
155.32421875,148.2890625,153.41015625,153.484375,2672.9755358319526,2075.9072920103163,2344.87300002431,3781.4930656315178,18030.850028841243
127.15234375,133.55078125,143.015625,137.28515625,15648.245053827633,19774.77158334699,6998.56587225082,3975.5635577747285,18330.088548484364
198.79296875,204.21484375,174.1953125,172.04296875,1559.21710854109,6273.365057660214,2516.9738736933477,8253.780414082385,18313.31951793425
93.47265625,80.453125,140.63671875,141.4375,14378.938784988986,19501.417275135536,13154.799987281285,5653.79461916581,18584.53374500784
176.19140625,182.859375,168.171875,170.41796875,46179.067962238354,41565.78374657722,8541.967492895936,4367.128533868683,18771.888877909056
153.2421875,151.78125,158.7265625,154.63671875,1849.82693337925,2540.0554501728357,3049.80744480118,3399.074522115893,18810.420459590354
141.25,136.1328125,152.09765625,157.8515625,5417.647193031065,3006.2563573067687,1691.4393163129253,2401.1392147616475,18222.200237710735
156.87890625,152.99609375,154.69140625,147.48828125,8475.721420378688,3081.581438310808,1534.6075533609455,3200.7307963292733,18314.842374697193
10.14453125,124.4140625,32.28125,141.8125,41223.69301623803,9858.558339770232,19545.611772151562,5610.34516708979,17958.696683232698
290.0234375,180.31640625,266.32421875,161.08984375,42546.604060547674,70047.70424400122,28140.109227233523,12024.082410538353,19242.277327263848
190.5859375,189.6171875,183.55078125,183.65625,5743.520023854386,5875.878070822575,2159.4979124564315,4235.266379077939,18175.228588867925
94.765625,93.87890625,142.00390625,144.015625,7503.629617744502,6582.967036387746,3450.7977153082056,4725.071943323098,18570.337480913382
156.2734375,158.27734375,150.5078125,148.30859375,15180.45178207559,9778.249994271979,3415.7225099163197,3901.345783020063,18956.726653809485
122.22265625,131.90234375,141.91796875,148.7421875,51041.08002613175,8882.593348222013,1360.7355023555563,4078.5949929095423,18560.41964592405
147.640625,146.53125,142.765625,144.02734375,49373.13137373652,28755.098846985737,9827.56763414584,14083.006533714946,19725.220740199817
160.5546875,152.14453125,176.37890625,172.296875,24388.769782283733,9084.44078660539,1794.8811860805426,1867.1007192372545,19124.75312098206
157.07421875,163.375,163.453125,152.92578125,15229.538163396855,2979.103900564283,3608.279622034627,2835.7011706194194,18440.760750215217
129.98828125,117.3359375,142.48046875,135.42578125,7788.004176506036,7099.809039719052,5362.223629887577,3629.786671541334,18726.7796347099
147.30078125,163.6328125,179.98828125,178.4921875,7045.925220670267,10147.820962425292,6035.422226513751,4182.782874063472,20794.955534639823
198.5703125,182.875,144.91015625,156.6484375,14275.482329457365,5650.921894907407,5988.851378814055,5146.589211627899,21523.505855339572
84.59765625,113.3046875,147.37890625,144.75390625,73727.59200589525,82983.53690064893,22809.614217683506,12699.86944256448,23745.835561748438
155.23828125,138.3203125,158.46484375,163.12890625,22825.20257537791,29407.24064189494,10703.686643378302,4718.3783133973675,23876.948755856058
163.0703125,146.43359375,153.7109375,144.43359375,10338.49367381647,1953.154151522209,1392.8439189624246,5969.238725055022,23697.438146962173
158.25,169.43359375,147.07421875,157.69921875,3319.5052576287444,3552.8320543175896,1310.21482040963,2566.347147071838,22905.5243561546
153.00390625,149.09765625,158.140625,156.25,7521.567991037988,7015.227768125209,1792.5324478052316,1488.0282331725816,22081.51819629762
124.69921875,143.02734375,171.3203125,159.28125,6119.951657570649,2876.675427454485,2175.8742222185574,2170.9761627591615,21136.018457036676
153.4140625,138.66796875,140.90234375,154.82421875,3367.326169080192,4164.510938362549,2775.4679280817536,3056.4360569093114,21681.027907276177
146.33203125,143.7421875,162.90625,152.36328125,13205.473893580518,9689.820315610454,4123.299536083203,3271.333474840806,21596.022544811167
158.5703125,162.67578125,154.6875,152.2265625,30174.830395897356,27981.165727102452,8579.068642345526,4936.251859576644,22316.179523506536
130.6171875,121.53515625,151.8359375,148.90234375,4545.857204916419,2286.999750094832,1605.533534192373,1869.0798679333827,23042.26994892287
130.265625,161.2265625,143.91015625,165.12890625,181186.3639017638,28892.40731228379,9028.683839428868,7127.244525654756,20999.864133262003
136.671875,150.34765625,138.6171875,156.52734375,2706.442651568237,7454.584774151261,1282.6131722164691,2492.535488086858,23820.361592601632
182.046875,155.375,173.38671875,153.12890625,10738.089083994048,5015.927721437261,2358.777899360928,2425.736044114675,23742.00877942562
142.78125,129.265625,161.03125,142.90625,2457.8224814545692,2460.1788818616424,716.2680968585595,2644.133592710932,24247.86508751791
147.98828125,179.78125,149.82421875,173.62890625,5489.854374043312,4391.169615627291,705.0892418429768,4296.344147462643,23151.03749418443
141.09375,108.0078125,160.15625,151.92578125,5269.457169055348,3041.871631621612,1093.5441709666231,2686.2287416754757,22606.12593781623
155.71484375,176.75,158.28515625,172.76953125,2081.033754839239,2436.789898492818,1400.5720704296505,1444.6139504276139,22451.818024907992
160.74609375,140.18359375,161.3125,130.6640625,4208.105805560993,2476.882138478667,1204.873671209264,3680.0804618075904,22730.23935381934
144.75,143.60546875,154.7265625,164.5859375,2435.1497220050023,1766.2312908567026,2057.471983837824,3388.647459250039,22797.368340878566
137.56640625,151.796875,138.609375,149.0703125,23121.924987202143,17647.967476501402,2217.5057872143234,3718.0442567484315,23610.149727014134
152.45703125,156.578125,159.15625,159.8359375,7762.134912717007,4048.25894297519,1901.4471559942497,1720.1582495902207,22661.921095783287
160.58203125,140.53125,162.140625,154.50390625,2857.740871732089,6550.379711525922,3366.427010130211,2468.531052721507,21665.744168691774
143.84765625,151.2421875,147.8046875,155.953125,7478.271460252884,4159.808363540922,1757.5805371361832,1002.4610665412333,21371.512321937334
134.00390625,140.31640625,154.5546875,153.1328125,10503.578948999735,22735.05406268604,4305.28503384956,4555.687177858042,21579.401707407895
148.82421875,139.3203125,156.85546875,151.1875,5938.040860027314,3465.0299185460503,1574.6947208957076,2045.5700857903018,21803.01143503895
160.69140625,159.23828125,150.39453125,151.0,2220.752525758862,1774.8816121741802,756.0758380879244,2580.678243127759,21602.341578854117
134.5390625,132.9921875,160.6015625,162.86328125,34654.39684382243,42841.10085707807,14928.88959364043,6780.267930467809,21897.322621727457
158.796875,152.2265625,152.83203125,150.10546875,3136.165735535388,4565.470903962987,1282.2452221845351,2898.9742674168683,21651.009571547496
142.21484375,144.375,161.61328125,166.58984375,3260.1088441639076,2469.758267732743,956.8529153369524,3129.119981283273,21653.957108959847
177.71484375,168.0390625,161.71875,147.01953125,30186.124542581554,27961.861533894506,5060.022868306054,4276.617697943715,22100.582745874937
120.49609375,133.67578125,133.16796875,146.7421875,3397.9269663716304,3439.577555010687,2672.6000271244857,2359.278430996896,20713.97957169529
141.1171875,144.8515625,159.44921875,155.26171875,1733.2339878169978,1596.787191587589,528.5233173134643,2133.9764514894023,20742.568857069473
150.78125,152.94921875,162.17578125,163.3671875,3717.8796496428286,2033.2802231644498,883.8470890326578,1557.497314001649,20891.097397641308
146.80078125,148.57421875,150.84765625,149.76171875,15113.8784228752,3660.453239476707,1447.0121489917897,3827.5617880673217,21097.947918106456
155.73828125,153.92578125,154.96875,163.265625,2770.0274609386247,2178.9650639984593,1026.7609224132052,3181.2580596644366,20819.591802470488
132.87109375,120.66015625,164.71484375,134.51171875,10444.220264951211,9984.197942379073,4245.498166645957,4289.091637258938,16854.114249153423
130.39453125,125.4375,147.984375,141.87890625,165357.3718759476,85499.83670897117,16827.03003288269,11767.811026931839,11918.622023858403
149.96484375,146.703125,150.24609375,165.09765625,48019.76263922239,70075.02017510633,25275.642189417063,15319.355600485953,10566.950493001046
120.625,117.35546875,172.8359375,145.4765625,89760.21854858458,78891.34627568387,37368.704747936776,13558.168730174928,9920.160091111582
180.765625,187.734375,140.9453125,161.66015625,34856.12439834398,17080.32327912047,6972.678443924516,5167.878881603959,10515.225123693996
152.61328125,150.1484375,183.87890625,159.21484375,72194.17918242348,171309.8491731915,33836.505427788026,10658.531849118093,13681.818887042366
144.72265625,147.49609375,130.46484375,141.46484375,19699.7353417494,9115.525886479832,5621.3472500424705,6192.443144524014,10357.080570631155
139.80078125,139.12890625,154.87890625,155.51171875,2641.003283641342,4269.0922232597595,2186.0132846971283,6285.474765335584,15015.133175940873
136.37109375,141.015625,127.578125,140.86328125,20426.011516603197,16319.020213373096,12674.014094491307,13900.293038186546,12033.92290571417
216.8515625,232.671875,157.33203125,180.51171875,55339.789452473204,57758.56416250331,16594.75649811976,9219.029542682378,17682.96633427939
86.078125,69.4375,152.40625,139.7890625,14646.133106161986,15230.752659533835,5042.713525610142,4698.939057573065,11032.609125255089
138.34375,120.046875,165.6328125,144.46484375,113752.04125746414,89471.84999348603,20395.186913238045,11305.584460008236,11410.458134867737
180.65234375,192.3125,163.8984375,166.01953125,84355.17638341885,143681.68228018552,49784.9406541779,12924.822103661456,12911.694313713742
117.55078125,103.6328125,126.02734375,155.44140625,120326.73856608894,93245.15209150316,47084.64385019824,17420.660801668546,12292.976016920204
111.69140625,116.61328125,169.6640625,122.03515625,44117.430748321676,71904.9659908558,55391.40395796388,23404.755788662387,11076.159313433789
180.10546875,79.39453125,152.7421875,86.19140625,155428.43213562085,52486.05461810385,22295.15535327435,8576.512218090276,14115.791474310829
162.62890625,199.4140625,140.26953125,175.25390625,90438.87821118426,341148.940238147,142644.31039592117,47949.03830343793,15513.050127739774
158.37109375,208.98828125,199.87109375,212.296875,98348.1479856022,143476.34579205964,53979.34808920229,40108.17414313656,42005.17641176952
120.12890625,167.15625,136.8046875,227.05859375,100801.32515920495,28886.574410644163,14380.543486304614,10736.109394692829,13322.080508639852
79.0546875,-23.6484375,114.578125,9.25,154410.7750146281,112395.07842230401,36202.44206918089,16171.818330450049,15169.960775996931
186.98046875,242.7578125,156.03515625,219.86328125,65120.79140209559,56277.13396940404,22165.075735603354,11379.707732216519,14840.994715131152
159.79296875,160.703125,162.5546875,148.53125,100750.22298535248,17565.045784093334,8851.582710640254,5118.266587615459,13788.035559885406
162.328125,147.5390625,171.95703125,169.98828125,3457.250326844719,3389.399453223717,2040.0306505662536,3106.711070043373,13358.415348529892
145.890625,143.265625,138.2578125,141.8515625,33507.69421674004,46404.04942770266,23229.18188227183,22478.330754425315,13412.05336395531
146.3359375,159.70703125,152.88671875,145.41796875,51618.833882515086,22675.133016475622,7826.885498087097,4809.700756189316,12697.695724955927
160.60546875,141.17578125,164.8203125,151.95703125,111977.33910965107,116512.59279734822,39079.51387753793,9753.511373351135,14696.320902683914
118.34765625,166.36328125,144.28125,203.69921875,19899.31458838366,6900.550140732175,5593.95676977437,4307.764135471148,11700.055425406426
152.8515625,107.375,156.65234375,102.3046875,26017.562642748206,8962.09849114314,5126.004018475823,5261.498243183977,14035.57959804754
160.5625,153.12109375,156.1640625,151.95703125,3487.8581646152484,13062.308840926406,1747.6583459871667,2438.6000024133878,12997.452948722143
149.85546875,153.36328125,161.22265625,164.24609375,9720.812474727405,7090.920911453297,4894.299357223257,5802.629696779754,12358.191092160518
141.4765625,147.625,145.12109375,142.8203125,19231.953272904582,15129.164907522116,4234.734924361536,4743.652469076373,12379.337962312
187.51171875,219.78515625,162.21484375,197.31640625,9447.71924644016,5618.387278146714,1928.2726166267807,4396.987307345677,12920.297927564512
109.62109375,72.35546875,143.125,124.23828125,49323.26142046636,76919.41393194233,42401.71191109022,12874.192802477373,13330.780471640717
142.98828125,143.9453125,155.921875,137.86328125,56578.310752276666,41410.43852042127,14893.196954243434,10926.74530816873,12562.854100364408
162.734375,156.63671875,166.65234375,167.765625,6471.311741401088,3616.8667957261705,2419.1560719987506,5104.683322317586,12062.085740085522
135.23046875,137.15625,148.2890625,144.359375,10351.656637307207,2664.6227083016893,1229.497671591139,6831.360710101862,11453.432542647766
146.84375,141.78125,152.62109375,155.07421875,28926.91657799675,20577.521391253355,5110.906256466147,5561.804731191903,12306.538673794881
150.37109375,179.484375,155.3359375,182.2578125,27325.33607130953,11578.840917944359,6866.314305857249,9018.111193874967,12233.43484459479
146.23046875,102.4296875,145.84765625,107.6015625,5926.8253894513855,2056.905264826608,985.2407729881679,6017.462705278372,11817.365960637624
144.046875,174.13671875,162.75,184.3515625,8497.462716823331,9962.57453619891,2334.7499028158163,8020.062153323057,11705.19047038026
156.01171875,162.39453125,155.1484375,176.875,7389.85310135497,8384.70308021944,5246.202189292379,4468.243475797695,11773.35536802628
170.6015625,167.65625,160.5,131.4140625,6927.949239038873,4152.053064371068,2731.985706209503,5090.9501471730255,11770.934197601455
121.39453125,99.3671875,140.234375,141.53125,17124.58618017582,4310.754371384592,3457.8087683787435,1968.9538904173146,12920.351679002839
135.8125,150.96484375,162.05078125,184.8984375,54512.22832351884,12636.3093759577,32587.15401143304,21031.987065083595,12278.674087611309
150.2734375,163.9609375,146.3203125,145.4140625,17309.348598408622,16947.064299179656,10713.192746049106,7632.473408760675,12041.921987582957
146.26171875,115.6796875,161.78125,129.10546875,5862.146858426127,3960.50927923081,4488.75392287385,10953.830228983854,10541.345128356383
131.75,129.82421875,157.91015625,161.26953125,13021.121032174678,7384.0917028731965,13000.982955638554,6568.064373675837,11466.645505993341
123.4453125,154.5,142.26171875,154.83984375,9446.933675861002,28973.557846223848,9125.235008336269,11472.809735836,12180.522692022592
194.765625,146.3828125,168.24609375,134.125,5183.211018814141,3993.8676367467633,4474.666288650914,6444.57372707772,10889.002309359823
151.04296875,177.25,143.55859375,176.8359375,7298.753153681596,5851.756802553979,2473.1612915604837,7035.688685110979,11107.8671618254
138.1875,117.265625,169.0859375,137.625,7664.336063875504,7023.160750892503,3620.6841557294956,6060.709545737868,11889.034598572893
149.41015625,170.515625,139.5234375,177.84765625,6486.054608031445,5133.477941012434,2310.7767531529494,5688.357616899906,11544.92116080152
157.5625,131.73828125,159.10546875,130.46875,38020.8099334296,29989.517677076237,10863.01351528008,11062.53908785531,10025.683688469186
107.69921875,108.7578125,143.28515625,128.31640625,18787.01190901128,37094.779529400716,30466.28283709707,8922.192428461987,10765.429795226835
178.83203125,221.3046875,147.21875,203.85546875,122306.55265960611,66564.5340266047,32962.36675660519,15099.109599998163,10885.89027088785
147.80078125,120.86328125,162.5078125,141.390625,20376.647378104826,10128.598193755552,2848.8956614749627,5275.39422897404,9279.66242173039
146.76953125,180.25390625,161.0703125,172.62890625,16691.780448593378,3343.71582426206,2105.8977697224955,5420.060897817573,9425.075202776325
115.86328125,96.47265625,150.7109375,142.0703125,74904.20673689927,91225.43972749716,18446.83506692348,14863.09497496709,9621.594180347685
177.28515625,169.81640625,152.16015625,137.375,51952.92959882235,209479.53315785114,48927.63225978605,13772.269164262241,10728.323587973886
140.52734375,131.8984375,148.96484375,149.0703125,81551.08299954882,91560.54378678596,27281.64271524499,13882.672900367925,9102.156146551783
108.71484375,104.5234375,152.01953125,161.71875,23664.682211496962,241173.92817338166,47772.90046621999,25444.061236920672,10282.185731060436
140.265625,138.91796875,156.44921875,144.09375,67073.33322264251,351657.8447352026,83642.8177444277,23486.451819008074,9849.055558225027
175.80078125,242.1484375,118.1640625,174.29296875,96498.6836164405,84317.83725711254,25429.947989427044,13032.445687621013,10428.950181419394
187.9921875,89.80078125,230.23828125,149.0703125,71266.39478185013,239858.97888193527,85182.50270343309,34754.54793168643,13605.066864468816
138.62109375,174.4140625,127.7578125,161.5234375,140569.3268633908,54387.417426538275,29468.792904450933,9528.71541879504,10444.988954788043
134.03515625,128.36328125,170.52734375,155.796875,66138.73985384268,57985.413030525524,14104.446344522674,11417.831090552318,11245.735491521737
138.55859375,152.85546875,134.65625,148.234375,99073.58623438733,130561.09625225764,30658.531618467954,7313.663490001429,9401.620694696578
152.73046875,138.046875,153.75,155.56640625,15764.274752785324,24992.28520745105,13469.008526274754,8320.809954565957,10502.345481934915
156.8828125,149.4609375,150.86328125,154.3046875,3904.0893679393043,2789.0764219595703,2663.540969091018,5705.976550554584,9779.005523534195
140.3828125,244.18359375,128.68359375,380.73046875,39785.09596882988,9076.775204680573,4450.396819198118,3581.452172917244,6098.934882587506
140.46875,127.0546875,163.953125,111.09375,6727.929541727926,6803.922476901193,2437.050250735077,2987.1995493105273,5337.599944649014
106.25390625,130.53125,113.91796875,147.9296875,63079.24457307643,17854.885983291253,7105.218143179822,5476.050456142151,5483.767757786307
216.09765625,145.703125,206.234375,-25.609375,80223.63180449582,17902.327064327397,3222.06897563643,2409.4766867271624,5270.303476171299
75.87109375,136.65234375,95.69140625,309.02734375,88948.28646147044,4821.963352320985,3039.9809794570047,2507.904015515937,5250.752267271246
151.31640625,140.10546875,155.25390625,121.94921875,9861.798294594366,3000.2532784232308,1714.6409769328377,2993.2296708939166,5228.202242281493
68.5625,151.171875,79.66796875,163.79296875,18850.244639540826,9212.59570648181,2472.849749674769,3302.4217293289767,5265.286585751006
202.6171875,122.44921875,284.890625,122.609375,33113.27200091899,21444.765411551103,4188.378853232399,3835.8234504800025,5474.285861458398
84.92578125,158.265625,-35.07421875,160.5546875,48025.302467386224,21473.023588209744,2329.3911299898973,2016.8478336421686,6206.868275988831
235.0625,138.125,302.94921875,158.70703125,356963.41117064096,121838.5278436197,27863.87742462673,11148.53040315694,7688.5694949777635
130.0,136.93359375,118.328125,138.234375,4011.757957339755,5133.40166698774,1030.5819845963288,2971.0737156661203,5592.014965576075
143.52734375,142.78125,143.89453125,158.69140625,9278.655706564608,3202.0529162823664,1224.8597438259667,1825.889692218706,5350.679010479174
126.7890625,146.4296875,138.40625,158.14453125,7872.5341086960625,2663.6191195278298,2330.9441044302234,1465.597032990737,5450.176091018488
131.61328125,138.625,139.34765625,128.38671875,65089.66749244312,36137.959711602314,8097.458735886223,7456.5967451322185,5946.075378310208
156.76953125,145.2265625,154.21875,161.6328125,27396.10001186582,3472.8836158724307,1244.3443983348066,2320.167698529264,5374.109840763152
129.9296875,129.5390625,149.61328125,124.86328125,2150.5562251849296,3489.606608596662,2098.2030482325554,2534.863973997342,5338.130121434936
133.37109375,147.21875,133.8671875,152.66796875,14293.610265413157,4736.350678661218,1928.814810636954,2650.446977235309,5504.240602820682
160.83203125,149.16796875,161.97265625,149.2578125,4838.177415570657,4441.282851987131,4736.668809368248,2692.3910625491303,5036.968287579601
137.5390625,132.6640625,118.07421875,317.19921875,306463.0934501763,95584.32241003442,46661.531109569056,18990.192134796453,6632.350536220351
149.390625,161.10546875,186.6171875,26.73828125,15031.838160920282,21637.346194844686,4626.486068978522,1960.9964228652968,5369.90519639453
132.984375,121.68359375,142.453125,262.484375,111653.90033990826,33795.05573498239,2845.096108041779,1492.987881349258,4989.2142636282515
135.07421875,135.7109375,152.63671875,-257.1328125,521975.21931329736,95463.46714779503,8801.181459595024,3851.2001697307996,4149.852270613036
144.6796875,141.03125,134.18359375,298.35546875,287976.6830248881,21378.266893077205,4676.966423434536,2442.606766136564,3820.0989902000338
152.93359375,151.23046875,158.1953125,226.1484375,43420.556550179215,7128.238077567459,1308.0050234907078,2386.072649958514,4759.618580729262
149.6171875,123.33984375,171.546875,139.34375,14379.604644684165,2549.9200312984135,1342.2347193270757,2296.8185851047488,5009.933169082553
144.2578125,163.59765625,132.81640625,147.17578125,5880.949885062895,1878.6925143403191,1575.1627564268222,1748.5452771037267,4849.449225149442
103.28515625,142.1875,124.1015625,167.45703125,7120.742975067809,4314.8901657229335,1465.718174403822,4909.823171286536,5608.166272221166
171.7109375,131.60546875,170.34375,119.3671875,4111.8606025125855,1951.1997674989543,1616.188696181792,2425.7672499765017,5252.225159212036
130.4375,143.11328125,126.546875,167.95703125,11790.571018986724,5088.514990698361,1227.4746221783537,4559.615240165505,5084.729565336922
146.515625,135.7890625,173.1953125,149.24609375,12480.719389629978,3326.572604599191,1206.377845328355,3150.058737503276,4884.290496825934
141.48046875,145.328125,140.015625,152.35546875,12727.292973516714,5187.093519760248,3965.784080172145,4471.285073078665,5265.367980940899
141.1484375,134.125,160.84765625,140.16015625,35148.762589441896,28810.972216242422,16382.523098956593,9423.855561067221,5510.337438564802
145.8671875,148.0703125,144.50390625,149.66796875,4783.728320309525,1698.7175018000473,1484.510695297013,4091.9715700927136,5386.365965471403
132.44140625,140.546875,142.62109375,145.671875,5774.110882616827,3391.7272477244837,2016.144246165135,3876.7271676232267,5550.981235579047
150.15234375,141.73046875,163.5703125,136.3046875,2866.9335983981437,1625.2721899671044,1639.5703663055176,2959.554482253546,5392.019626933146
157.4765625,139.5859375,140.6171875,172.6484375,5164.061591023016,5958.199479060889,3510.658142990288,2628.135015791431,5725.1012500952465
63.3046875,115.42578125,101.265625,128.296875,45577.9980557933,18807.737365108318,4406.0238219551175,4729.0023670932915,5277.335512995232
178.5,163.23828125,177.26171875,154.078125,8017.134299304304,3640.36253393552,1374.6942875405455,1253.5609338424515,5329.742744400661
155.59765625,143.0,148.09765625,176.625,4827.605091706904,2813.5532096977804,2849.854113311275,4085.1793301369157,5375.284064008698
130.83984375,138.375,145.796875,127.87109375,25661.47795912475,14485.78963811271,13613.741965660685,5676.396120831837,5642.63884928088
167.87109375,172.93359375,163.69140625,137.57421875,30952.84952627166,9577.567083106833,2494.2432598465684,2170.4175001334834,4459.443668197214
105.87890625,110.875,132.0,151.73828125,4108.06462198634,3611.695044071105,2142.8520550811613,2245.4758547124443,3700.417542575402
157.796875,144.87109375,147.59375,138.15625,3252.362181146558,5128.015044223115,1985.490639786089,1445.1643583719197,3783.183098046354
144.41015625,137.12109375,163.3828125,176.44140625,33916.883775563234,14328.951055419824,6775.400601100039,6125.586212010784,4483.18172472534
149.671875,155.0703125,145.60546875,133.74609375,5744.92204637517,1881.4277326736287,1045.0933125876086,3527.0289818004453,5475.984947175849
101.4921875,126.33984375,108.82421875,169.15234375,4796.5508748796265,2194.847331598888,1372.9343716396102,2592.625388691318,5290.667326477317
134.796875,109.65625,175.46875,130.8046875,41925.16894777944,8617.86208702367,3603.973534678389,4068.627038073174,5308.678714632719
172.4296875,173.77734375,151.09375,123.17578125,18370.573995289553,4807.648581427534,7096.925936790091,2765.607971957589,5720.836121988935
137.63671875,147.21875,145.88671875,153.1171875,3785.3439652721163,3289.2965397961716,1209.841333440224,2395.7225896055766,5524.59463953525
137.79296875,160.921875,138.00390625,197.234375,10936.326266581116,11389.46254322149,8839.383025089362,8712.666723806802,5704.575046585591
141.0234375,104.375,147.90234375,103.73828125,9725.27711726974,4399.686670096229,2353.67781181117,3640.8653119992805,5324.418183063554
142.92578125,143.52734375,146.73828125,138.484375,2558.748680091731,3190.526054795312,1338.0130834893807,2236.076233900673,5640.944880047374
139.95703125,138.73046875,142.42578125,159.30859375,3114.4935452093687,2797.4810099422507,1723.4624872582176,3665.1119111607522,5256.654283055228
132.234375,138.20703125,153.88671875,138.875,1543.7013433263335,2634.433901721027,1983.167115223935,2764.743964027964,5447.73610984376
161.0703125,158.23828125,150.16796875,157.58984375,2747.048195131069,2187.433047966171,1869.4691019306167,2253.2378907187085,5797.821191743966
123.25,133.015625,147.00390625,145.08203125,2807.007392540227,3251.053434017509,1155.370717254013,1749.2791845849686,5430.492886563727
142.7734375,138.4296875,140.65625,137.0625,1215.6919253331307,1664.1984589182282,1337.3473077365156,2069.6340779469883,5116.21807268756
152.2421875,146.375,141.44140625,151.15625,29177.910562394813,31352.87222084524,18832.079394071083,12700.947263005664,5229.66501313866
122.94140625,129.39453125,168.1875,146.3671875,12172.708064204526,6297.772245475889,1205.7574703925395,4248.653403870545,5236.901340319844
137.15625,141.66796875,132.13671875,160.90625,7182.834427100988,16868.185678671536,11145.123713204215,11752.493029784238,5400.253752466992
169.3203125,147.8125,166.53125,144.82421875,14581.75444022482,3385.1928913874267,1328.4143391347154,2684.2245613713103,4994.848706376662
123.91796875,140.50390625,132.21875,135.43359375,5942.066870526996,3362.802964586515,3997.4175167294447,2393.511684579841,5317.44124858699
132.42578125,130.77734375,142.84765625,156.03515625,8755.869060898342,4982.3188716932,1253.5314767849059,1850.5576253203158,5020.092602836825
159.2890625,153.046875,155.140625,147.07421875,2840.22598011993,2058.5165601181593,1009.6322461648256,3131.102467390064,5042.170217502467
117.98046875,135.2890625,136.1796875,135.46875,2723.709371942154,2905.75907474783,932.34819167696,2854.8080282128444,5041.7693065760295
161.9296875,144.1484375,162.53125,152.5546875,14606.005090066063,8712.143492543371,2843.9720755156436,3004.870752201845,5779.664494367409
131.203125,128.3125,129.3203125,142.52734375,11487.714069071037,1894.675435758005,2659.4453160737307,1723.0006520373695,4758.4059426716485
159.09375,165.04296875,161.8359375,145.65625,22536.24872127594,28733.125085140102,13041.044103271985,10074.315324250001,5218.778019990315
118.1171875,121.46875,133.09375,154.53515625,3350.924305801278,3830.8256607971166,2043.2335508580459,2206.355923167873,5130.184572331956
167.2421875,153.5703125,165.98828125,182.50390625,11114.321178117152,12522.980657958993,1179.070196829118,2695.204454918081,4264.8340642904195
110.71875,119.64453125,149.3515625,64.33203125,125870.08659502443,10643.256780548389,3773.9787639023743,3179.959520585552,4452.640190338138
146.65625,157.1953125,130.6484375,177.9609375,30284.123514992905,3303.277709959827,1230.9979992704436,2118.348695649156,5388.686434816954
149.8984375,141.69921875,147.67578125,165.03515625,2638.4104760668492,2258.5839731477645,655.586774055596,3018.935917090063,5159.32195940491
144.140625,131.89453125,159.8359375,158.4765625,12175.177475970753,24910.063147802543,20462.961779536825,6542.122104116075,5371.37143841462
136.62890625,144.59765625,146.5859375,137.87890625,3123.807340844686,2845.0681009716363,871.8236833991247,2243.26256841518,5314.674714613937
137.41796875,142.234375,146.90234375,131.3046875,2096.3516667032054,3669.930973553436,1294.1025731030784,2313.08140573521,5216.033721551541
126.51953125,140.84375,127.7734375,156.34375,3773.061093410105,2444.500062393213,1426.6219797613808,2888.9494142572676,5612.1977029066
137.296875,138.265625,151.3203125,150.1171875,1496.9031860177497,1673.6196637972496,1980.2351004031495,2153.2977121559143,5052.470582216422
152.71875,122.15234375,141.58203125,155.84765625,8851.40266329359,3452.5460658061847,2158.4447662603593,4198.315425456916,5736.74533420429
125.078125,148.17578125,149.89453125,138.5078125,3916.5341261783087,2396.668246050286,1056.5462396788537,2562.985694106147,5350.5752638659105
186.7890625,150.8046875,179.91015625,144.49609375,53575.80923571555,34267.446319890914,12211.791643785791,6874.710005013149,5587.437150055198
87.33203125,136.87109375,93.49609375,151.84375,55826.64566203962,50452.467101788556,22129.52788578896,10761.041343267636,5272.846544162997
152.203125,144.953125,159.2734375,137.15625,6629.278242867572,3518.370306083615,3573.9450062435244,5795.958229356998,5360.848944953737
140.16796875,128.66015625,159.6328125,145.1015625,1971.8900252942965,1763.342473315406,1664.1946267625096,2252.6284161879635,5591.281883540067
134.4609375,146.71484375,133.9375,145.0625,7998.206888469268,3999.0854314891226,1735.170713024761,1825.1612023386838,5492.544775253882
147.21484375,142.828125,150.1171875,137.7578125,3071.9019749481695,1952.6115114448385,967.7868780125985,2920.6131628217654,5525.924548398101
134.796875,130.5234375,153.94140625,166.984375,9979.126496301404,8303.854941183852,3431.3079577410476,2604.6994900924815,5905.502108237653
141.9453125,151.50390625,140.64453125,151.98046875,4179.159791920871,3040.5996981537264,2246.355392059175,2004.6329275523713,5696.062870507911
134.37890625,122.57421875,146.0,137.4765625,12527.05016696133,3587.518501023086,1552.2586957162582,1917.3587068228464,5322.594751231801
142.69140625,151.76953125,146.73046875,145.0546875,19148.72309143204,15024.118448891122,4626.82760371363,5041.661724600694,6412.476148242213
136.37109375,128.80859375,150.609375,131.328125,1411.294368294322,1590.3329519691765,681.0761193569805,2813.845340433822,5697.865600234936
127.6484375,138.92578125,141.59765625,134.88671875,14001.5508421933,27943.443343670224,18315.01316218798,10981.499988698759,6296.257958603781
125.20703125,156.296875,113.625,162.58984375,33166.12548823916,9827.161937027522,1826.8984114140153,3782.458778940346,6070.146106329175
153.5625,118.9609375,165.5234375,135.71875,20079.65156370716,17975.416561470414,7078.879613200343,3469.587385836709,6031.579850585507
149.6484375,147.5,174.859375,154.02734375,17997.475558844737,9860.12628843527,5714.795263053162,4512.026313507666,5547.737829462894
160.421875,152.21875,141.4140625,162.5859375,2231.676945164197,4806.189003389205,1692.4860324763713,2545.374788140975,5584.35259645715
117.48046875,135.8125,134.1875,140.07421875,6621.529950274075,2382.8608096937896,1136.2742502304604,1783.4984675019705,5565.23527551737
152.09765625,148.35546875,149.16796875,142.25,62779.72955095368,49706.91689433738,17089.79477404503,13162.80668487005,5825.735979500676
153.59375,139.59375,159.234375,164.59375,9419.73257940776,4207.929439114461,1699.029565167241,2297.961563054473,5650.08160732198
123.59375,120.89453125,136.1015625,130.02734375,4116.58068645468,2031.2939868605154,1135.514431508347,1929.4034690782105,5432.940249953596
115.265625,142.30859375,118.93359375,161.67578125,37859.04487385746,38392.64209073538,9155.38259887717,3916.4316481061414,7451.165389088708
161.6875,147.50390625,183.6015625,130.01171875,2117.346954855006,2848.6410690186494,2273.5587698018276,1665.1804985233086,4210.5177263561645
143.62890625,130.76953125,126.01953125,141.25,22334.700860453624,6934.52736759749,2442.67296253834,1556.6647238387848,5902.869338959261
147.5390625,147.65234375,159.20703125,162.609375,11208.935393979595,4348.746090693624,1333.2256680402236,2280.518969949057,5340.094095500543
131.11328125,134.82421875,128.21484375,132.578125,3950.9743252561193,1336.5874746215304,1579.7678817676997,4203.976303201833,5294.3738138398385
133.12109375,135.39453125,157.52734375,141.92578125,26780.7394037498,14273.491021853692,7475.873449664956,6859.750001134579,5612.886325065954
152.7421875,154.40234375,146.33984375,154.96484375,7828.154604550655,3767.8088947447386,2664.8646001488764,3208.368082147266,5597.0621638499915
192.19140625,133.6796875,233.67578125,170.00390625,6268.132266834813,3566.7014121848533,2147.9728145275676,1744.2067269381982,5777.514756320936
78.2109375,151.35546875,49.546875,128.14453125,13880.069528307406,6563.5068261771885,1370.5397947206973,2784.407998654441,5997.1005025779505
122.87109375,128.546875,118.03125,133.765625,52153.06778698925,9325.974029805828,5584.247162320673,5052.736361804062,5965.839979604348
163.06640625,133.09375,175.30078125,149.9375,3888.756168420766,1404.795097396482,868.5205904439745,2042.757937137846,5891.948169992063
115.7265625,146.4453125,150.03515625,228.5859375,9537.34803616003,4032.4291672504555,2373.294205604015,4273.774721103701,6067.9701102497565
169.0,140.34375,155.265625,-149.15625,571785.8236872421,231908.40871989937,44445.197315749094,10449.213701850951,4774.548590430708
139.54296875,143.58984375,153.36328125,470.12890625,112471.74981698774,15159.58059297107,2889.0149390933393,3946.920145350063,6331.314576828395
163.7890625,128.4765625,166.7734375,58.14453125,83682.54774616165,22862.45398284418,14515.688809252268,6619.37018764878,6004.550120851135
140.08203125,142.83984375,148.9921875,103.18359375,30994.260636261693,4900.170191055449,1629.0063807701372,2031.5379811771127,4815.728905936212
91.5078125,137.359375,102.97265625,173.94140625,96299.23882833414,7133.977810206021,1869.5133392376908,2675.519604537973,6535.072896380945
147.6640625,134.27734375,157.01953125,131.34375,7914.465401903476,12444.60290996444,9042.141805329538,5708.294603906549,6797.78199769188
152.72265625,150.671875,137.5546875,135.921875,4977.31175437331,1352.8221578120238,1630.1306914240392,2108.232410891969,6839.942816568011
147.5546875,137.9921875,156.640625,155.89453125,36024.150195934155,23742.15660806363,7667.740046642862,4674.335422350928,6645.579443585496
128.28515625,149.70703125,141.2890625,146.21875,1691.8224498796321,2325.911192280166,1044.1799244141398,3075.630351437857,6674.2152893408675
144.26171875,134.65234375,139.125,159.265625,7606.575088682295,7234.156687277885,10235.2890717109,2745.3656014015555,6543.15431699716
115.35546875,125.45703125,145.46484375,131.3203125,9196.60049422366,4372.428220652397,1300.3688223622673,2843.969832224716,6641.529914773918
167.96875,156.421875,163.5078125,150.97265625,3404.8585479640096,5617.448009118087,1726.2577710010291,3183.7578238088286,6834.4954319742865
116.66015625,131.12109375,126.828125,154.79296875,45112.37515996716,41608.73153976434,23645.610061475796,12231.905740644952,7430.742702597774
166.2578125,168.58203125,170.7734375,163.3359375,17948.528555023968,11241.900137487282,2430.5647253018865,1957.4689487137389,6993.468598343212
86.328125,101.3828125,107.0234375,44.3515625,50244.70786514508,9574.756529586366,3528.6498458179462,3322.654223543246,7006.285445899275
192.43359375,151.23046875,168.59765625,219.38671875,43916.95503294943,11257.47311517289,3192.1277430046302,1863.9771226275993,6701.713302527947
151.85546875,147.74609375,163.76953125,156.86328125,5537.4255774859685,1470.7449698840464,725.4954353457379,1664.2217331484499,6640.656681329055
102.234375,134.50390625,113.828125,146.41796875,20945.98510845257,15746.627726608578,12490.210656532934,11967.451768303607,6776.17629463742
169.55859375,142.48046875,187.4140625,162.48046875,4355.729734229348,6428.120857965843,2352.4705076314467,3255.083809158486,6588.87407942995
115.09375,132.921875,119.3203125,126.19140625,33671.23601608362,36510.76289794304,14433.996891914949,12467.340908773018,6813.117828111739
147.671875,147.35546875,147.6484375,149.0234375,4479.04655770197,2526.360420544995,1963.485273937438,2865.7499448217345,6681.444691560564
115.375,145.3828125,113.06640625,142.11328125,8335.467694683248,7065.561234743641,2672.5647034415742,2150.907797519527,6879.766959916646
175.3515625,128.76953125,180.9375,145.9375,12022.848972731641,5778.701954151475,2230.828934058117,1582.8249434088696,6440.88082633188
131.265625,160.9921875,147.16015625,154.7421875,2358.2332374012817,1442.2298046371934,882.8342645078525,3376.4387883373656,6486.420074894358
141.2421875,122.51171875,143.55859375,151.16015625,8581.04140707505,1072.5941540170525,1629.8211790348969,3002.2777356335932,6460.563551246454
134.7734375,132.375,140.09375,99.50390625,111904.55465127228,98768.60020954564,40670.77934010178,15304.572873744915,6679.549853068729
153.5859375,144.7578125,162.5859375,174.95703125,3513.8934129003164,2364.259820837618,3270.4241406194315,1658.143785621079,6619.0473982178255
130.6328125,128.37109375,129.65625,107.3359375,4097.223079666477,6121.874096729891,6147.5608279037515,3830.688182565762,6215.81846732305
153.875,149.3203125,175.98046875,170.859375,33973.91948063188,10866.104137657454,1557.68511437074,2093.485610229583,4883.989781849187
100.890625,158.375,99.29296875,165.171875,29843.972830847793,6608.038143181398,1070.3780294325193,1834.081419544431,5612.099761251295
115.234375,121.41796875,118.30859375,151.8203125,2796.227863047525,1985.4535505600004,1573.345163586629,2575.8972837159517,6125.035776896724
192.01953125,164.22265625,196.3828125,158.16015625,2826.7211985655535,2312.1100934210745,1388.3441960638852,1730.0326709913325,6067.948365622047
136.3984375,115.92578125,138.296875,116.29296875,5661.877630927687,2014.136290373779,2262.1850775339435,3223.983856499183,5864.1816813033365
158.578125,134.5625,147.0625,160.203125,17141.222431625025,5958.675257154696,2228.050279814033,2219.2293937291615,5635.624288328033
107.51171875,149.02734375,160.8984375,141.91796875,14916.151036254829,3412.6909973507036,1318.7114500589792,3000.0335306126312,5702.768137813063
150.296875,132.859375,144.18359375,143.640625,4499.103593171334,3222.816716601475,1534.5392147716786,2468.5003004950977,5806.916340552818
136.1953125,139.62890625,138.0703125,152.96484375,5783.326007671349,3660.447230505991,905.6265788687086,1474.1760981602426,6092.291141938933
190.265625,157.3984375,188.73828125,144.80859375,7717.547559309392,5571.569395393515,1994.3832492009758,3067.9969335621654,5884.907864156289
64.1953125,120.609375,70.1328125,152.31640625,16942.407653232232,27734.386481006793,17060.116041899513,5955.596066024607,5685.043626037378
159.765625,150.4296875,166.8359375,169.265625,23527.479877280828,6603.414687195194,2338.626225343101,2653.1587227679493,5868.011595376199
114.73828125,158.4453125,125.67578125,115.375,17414.374214157753,6912.513075646846,3934.857961445547,2910.843869197704,5005.352984299872
174.25390625,120.91796875,166.5,129.30859375,49929.623332443334,12827.67597187214,3220.6482677286203,1684.76808933953,5235.563690728504
73.91015625,137.546875,84.2890625,229.3671875,124543.42531363328,33239.47116332284,11061.691413762135,4538.3241834428845,5574.713768882155
209.46875,138.83984375,217.53515625,86.0703125,2411.4813153618156,2116.26018092484,1014.5337967513158,2243.4361922404255,5473.443008894652
146.9375,148.5546875,134.5625,225.67578125,12618.553178686792,7875.249142524171,3418.3304621321254,3496.18622369144,5461.4768059181315
107.3359375,124.8125,98.33984375,78.25390625,60970.62295330457,59365.347114954995,16421.094246488177,5254.666599371436,5708.69688149148
154.40234375,149.05859375,213.48046875,133.88671875,1088.9892120707998,2127.863899435943,2077.670221908131,2306.4306023459944,5483.814103541467
147.87890625,145.8359375,139.10546875,154.40625,4613.825640075385,1548.3954661357584,508.40294828152105,1557.7660576234643,5491.90762232913
126.90625,126.7421875,139.19921875,131.15625,1459.9099096940263,3079.484757585909,3231.612182731853,2759.284000165688,5610.461544030846
157.65234375,150.7890625,152.625,146.74609375,4155.8337932015365,2863.93175427683,1449.5173485559205,2962.5789813924393,5454.261472495061
127.140625,136.390625,146.5703125,154.33203125,1308.9348779055367,2706.8844097250053,1000.3763833386818,1812.179383934077,5562.218644702942
130.98046875,132.3671875,132.34375,145.79296875,1600.0638467279011,1394.2611864290016,557.736388533445,2113.78460317948,5742.0212651492
144.3203125,148.4765625,154.89453125,146.7734375,4405.134523570488,2951.196923896749,1472.925111386928,1882.0907883291009,5521.140280422853
137.88671875,126.953125,141.84375,120.10546875,50178.36525783807,42713.85391863802,10450.269245180101,4181.694536223827,5610.037603539318
130.5859375,132.65234375,151.62109375,148.22265625,2905.104166748013,2886.1649586509056,1613.724578777022,2474.8946183632743,5833.742415141873
148.9921875,148.76953125,139.26171875,154.70703125,3365.489775621665,4904.306522461157,3346.9793453248935,2759.9161832406558,5565.359441849168
115.5625,111.83203125,138.125,246.95703125,14311.147989746936,16021.401157240813,9162.575682555194,6387.472163444494,5653.833097959871
173.51953125,190.9453125,171.53125,46.484375,4671.434393750682,4108.369154863478,3190.4846261901903,4520.592704899527,9018.230458907141
143.328125,132.03515625,155.48828125,147.57421875,6413.493641444556,6644.128646395695,2772.2638324967784,3869.7338853545157,5332.017353546164
133.359375,141.58203125,125.61328125,139.32421875,4076.897042031419,2383.489964155677,2709.512381620033,3829.3329689199313,6597.521848584955
140.2421875,133.09375,137.8046875,138.09765625,1446.360985935727,1984.1007027523647,3725.2932549645807,4672.186618683921,7912.541636818573
131.453125,129.82421875,152.109375,144.453125,2909.8819357162165,2775.3017078550392,1229.8708375597053,2936.2955459878126,5265.826406022667
128.15234375,132.29296875,139.63671875,147.9921875,1242.3535314731012,1028.512252539572,2254.686778157893,4724.25447464017,5991.821622071848
165.54296875,159.734375,154.31640625,143.1015625,6199.795691428626,5239.770408765812,2336.9660706599825,3936.386146964971,5276.499564559872
107.0078125,114.296875,131.88671875,135.4296875,1314.242290381871,1907.409169717626,1606.5476326414664,3625.5479008646494,4226.313905498097
130.6328125,135.85546875,136.2265625,141.37890625,4863.112684111582,3069.563488312274,2239.7824357117684,4096.921357670208,4086.8752497241658
151.21484375,144.3515625,152.5703125,147.23828125,3789.450295082229,3388.8740249783073,2510.333073915589,4891.076572357268,4532.693911409827
138.63671875,146.41796875,140.09375,139.04296875,6199.581759859726,4919.853630834735,3607.34336804783,2412.9662486997677,4897.279843410033
137.546875,120.984375,147.94140625,143.61328125,1806.5050004447132,1625.2595601088856,1060.2975471331222,3754.765290127241,5387.74730595424
130.1015625,124.05078125,131.67578125,130.62890625,5940.926082550582,4921.6655569824525,1751.537871883907,3540.581363266687,3665.824884944029
132.05859375,142.59765625,138.81640625,143.95703125,5221.692135716748,7182.9501786611,8360.269890341584,4786.222572277031,4340.0655480044625
137.2265625,141.71484375,149.1171875,150.453125,5953.228609142846,5775.772682349029,2739.8402644734215,4586.727550880907,4274.750614251664
131.44140625,137.36328125,135.9375,137.09375,2890.8489459329253,4031.393540239137,1656.900121754447,5479.971651256618,5314.6565613528965
145.84765625,146.03125,144.26953125,147.66015625,1406.8552153166331,2315.6298716007223,2088.7144305863967,1862.8095720018155,3196.5580981772687
131.19921875,119.453125,149.421875,143.73046875,2565.351487764097,3111.9422958427176,1006.7139191589142,3779.231386326851,4056.5490374419574
142.41015625,132.41015625,136.1640625,135.3984375,1757.4106932167792,2503.7071920866274,1331.7583765107265,5725.030403674874,4274.147747788268
116.171875,145.14453125,135.72265625,140.7265625,1793.2685610834055,2797.3796823501425,3362.5826415698157,4582.073583443137,4899.815222199883
165.359375,144.8828125,155.8046875,153.40234375,6581.23425338934,2106.7217826439723,1952.5357097528822,3093.706855274142,4379.4778486635805
110.58984375,119.75390625,126.15625,127.66015625,2081.754355708599,1589.0532065278123,2900.9844710792845,3311.677281361778,4229.525766358681
149.58203125,144.76171875,153.65234375,158.44140625,4309.237705280379,1723.7166584897866,1085.90899589907,3006.860100390105,3609.500821659273
135.03125,149.18359375,147.74609375,137.90625,4586.3783850532345,3576.2559200521996,3928.8415402232395,3749.7115855380903,3376.807722370452
135.6953125,117.82421875,135.125,139.265625,3252.6649863557273,3062.6355830316575,2470.142572886643,4118.527930316146,4281.1512658625
137.28515625,149.8671875,149.58203125,140.37109375,3089.2854445159296,10977.29166848973,6566.70051268146,4568.067831658147,3897.2145532353125
145.046875,130.734375,131.30859375,140.39453125,5107.157881663722,10974.533334202988,2949.2373616892514,5167.046344839525,4538.4851475707865
124.30078125,128.69140625,150.4765625,147.8203125,3258.2521532971687,4374.539826573416,1611.4672686252115,4328.247110308977,3106.981398771772
143.39453125,144.4609375,141.30078125,146.01171875,2512.1346157862395,1862.8203113004497,1189.6539776285726,3230.516494895261,3752.984905305197
138.5546875,139.40234375,140.59375,144.0546875,3098.5961859576682,6961.3593201172525,2666.486811656239,3727.3558396928856,3260.1334819190324
128.57421875,130.85546875,138.33984375,133.7421875,4502.2262191418195,2163.883851638244,1587.5585693035937,2428.0054473819714,3529.0220861586813
136.69140625,136.25,144.140625,143.3828125,2598.8162491726775,2542.229396334702,1597.0498544547636,4302.140222133234,3654.5012084563073
135.0390625,144.6328125,146.375,149.59765625,4068.422627871004,4367.589933788298,3068.607611889361,3746.316076969057,3282.218853149818
139.01953125,122.515625,139.7734375,133.28515625,4820.365921659948,1822.2471616985063,1100.3013913828045,4163.107479441099,3391.324841108507
133.41015625,142.83203125,143.17578125,146.90234375,1987.8601717101296,2074.6121797414908,1734.7437266648199,4686.509958961086,3372.4742195602466
145.84375,143.5,145.703125,146.6328125,3528.815795143204,2467.6405994320025,1840.5516607052098,4488.558948347356,3029.0437106604704
136.3046875,131.703125,144.79296875,138.0625,2247.059682175505,1492.2552404347439,1520.1594777688542,3003.9444451356662,4074.042717837955
132.66796875,135.671875,144.75,148.234375,3100.3480338691365,1790.0163313004648,1832.0218036219906,3806.646604147329,3421.6128082683144
124.03125,135.296875,130.26171875,133.78125,4656.040961415533,2725.9745100251207,5374.832193699464,6717.262792516804,3202.122947384073
149.27734375,132.24609375,142.66015625,141.0546875,1750.8736527667725,2457.110472061063,1372.2755275656061,2833.4335796641967,2902.16558840734
140.64453125,129.4609375,160.3828125,150.390625,4076.313063484791,2669.902075406973,669.3060411133648,3071.698043180384,3950.0391444226325
123.1875,134.73046875,132.44140625,141.16796875,5719.914646783225,2752.32178451932,2613.161930614958,3725.0847710933613,4138.928415709965
154.0859375,162.32421875,150.0625,152.234375,3144.456883179955,2451.9509389466803,1707.5958470212788,2716.65605740385,3993.0600786831997
127.09765625,118.3125,140.76953125,134.6484375,4067.844193012479,5110.134657932265,5048.498177568197,4874.339264936045,3500.67344688017
140.671875,137.50390625,135.015625,138.65234375,6434.374344351184,1492.275751192416,3067.1049297767295,4553.265626745277,2936.189841111892
131.5625,123.09765625,134.21484375,134.54296875,2965.8129271444955,3946.8013228142618,3234.5387814240194,3900.0692700866402,3221.7859836264925
128.921875,142.30078125,147.4140625,152.36328125,1745.0827987922369,2343.9155068375358,1613.151798494127,2937.939998045837,3771.1498660072334
157.23828125,151.078125,153.25,140.0703125,5298.438353124275,2773.914487169238,3842.2227452355123,3718.109237183948,2604.625461378375
136.54296875,134.16796875,137.1328125,142.05078125,5519.378966681822,3337.9843632233965,1541.8077573562439,2119.24113466479,3112.99714632305
113.859375,119.5,140.08984375,142.80078125,2191.9093320265792,3856.495674244746,1729.9725606475592,4132.148828802716,4620.869464366817
155.796875,134.4921875,141.30859375,136.234375,5661.5572491190505,6249.693182727902,2598.181751096926,4338.475146640672,3863.3267445701995
138.46875,167.1328125,150.0625,156.59375,4652.672364079832,5030.780547303296,916.1338715299842,2821.980727289208,2937.570106864213
121.59765625,121.15234375,138.44921875,136.18359375,5235.516603977078,4504.632590407877,3285.207112768191,4725.392081216529,3407.6738919553195
138.70703125,134.5078125,132.671875,135.21875,2241.6436053438133,2029.923421072056,2031.9942717496224,4703.285216552577,3625.4999415375396
140.8984375,150.9609375,151.42578125,153.01171875,9765.303842091067,2497.8149121151373,2173.1285587566535,5622.143692227728,2910.622908497972
130.54296875,135.9296875,137.84765625,136.5703125,920.4393207725445,1737.5930070600757,762.2598096246344,3126.843962000865,4165.659002571285
117.09765625,114.82421875,141.34375,143.65625,2002.2142183112887,1440.5808180386211,2043.6068869224575,3607.952364943738,3694.7235340544516
153.73046875,146.28515625,141.375,137.5703125,5036.09390416343,2605.433180232545,2314.6010247790477,4291.217327707526,2757.8089418103355
136.84375,134.83203125,149.5,151.28125,2387.735708688214,5243.8094935638355,1204.3010979773949,4443.405901073878,3094.2266861007583
127.3203125,130.03125,132.75390625,127.83203125,1017.5414658880186,3748.3978582087593,2424.3174333020543,4964.801414577239,3951.964199257983
152.3125,154.60546875,152.41015625,150.9921875,3116.3317796639094,2939.9294475533115,1540.7470792610043,3665.9353282478546,3435.1531041020685
144.5,135.7265625,144.546875,153.83984375,10322.945752104035,5910.041227796345,3187.8460342222447,4166.336760904691,2328.7836782234117
125.25390625,126.34375,135.171875,127.890625,4407.129168516408,6968.361926808288,4334.98005613463,3463.143709976875,2754.7754678228375
131.27734375,136.1171875,148.6484375,150.1171875,2088.5666430599936,2183.6713422535036,3772.673738163288,2251.3967242366,3389.6447763963974
152.2109375,155.16796875,143.4296875,146.73828125,9672.655722675338,3936.1555045900996,5040.9645905056395,9303.26282369382,3244.3565411813224
122.69921875,124.29296875,138.640625,136.6015625,2191.020342430997,2369.3719485973747,1418.409839865989,3489.058401127635,2281.1232676654317
148.5,123.765625,148.81640625,144.765625,3188.128120926618,5901.531227727317,2605.2721826125007,4935.612065470612,3778.372136920108
136.8046875,160.421875,144.296875,141.390625,4280.647013187744,1938.4229204155513,2619.2399635657507,3689.1612289084264,2819.200585020177
133.0703125,132.96875,147.625,143.51171875,1789.4956448542862,2216.622172709805,1808.444692099863,2298.121857650123,3150.1687134831736
131.578125,127.08203125,135.42578125,139.43359375,5085.875081468683,2823.1004080030725,1123.531966693366,4274.761827393269,3582.2460322393367
141.875,140.8984375,142.7734375,148.2578125,1637.8050714093602,2959.816287832253,2908.4204106090974,3464.8115860404564,3832.4846410410346
134.328125,131.625,137.37890625,134.62109375,3738.9051934328036,4682.152033167782,2757.2718216400667,7684.328457965872,3350.3729698137413
148.234375,148.71484375,144.95703125,144.16015625,7246.01628009832,2753.2678428914896,1844.9411808010582,3856.749593452896,4576.255479978874
122.3671875,132.67578125,148.76953125,148.6875,3364.5232986049946,3402.6086048385405,1723.0326266631885,3360.741866601791,3994.8683278265025
144.10546875,134.203125,143.5,143.98828125,3669.2877232280025,5114.95924320528,3633.9446984371452,3013.416831466906,4862.802454742693
141.4765625,141.203125,151.4453125,155.17578125,2818.6480191287565,2893.7233644649814,2702.357471068071,9202.97536744645,3279.166022162244
130.90625,145.4921875,137.2109375,136.08203125,7318.851252720633,13333.896114236886,5565.176131198921,3565.1076517311503,2591.2808723858275
136.36328125,119.4765625,137.83203125,137.24609375,1243.7231590874417,4206.545533962308,4262.238694280984,4333.233809684506,3343.1525585618624
130.94921875,139.1171875,139.7109375,142.921875,2385.8200058312386,4974.247427084925,2669.9339784709,3811.1236692570506,3373.6259862004003
149.29296875,138.95703125,145.16015625,142.52734375,3936.115146304071,3153.0872268939283,3184.561659823864,3623.394952032526,3425.4601699513983
138.6796875,145.43359375,154.4375,148.83984375,1648.90597675592,1709.1425001833156,2537.082903513794,4934.682822521107,2376.07718960152
133.94921875,132.55078125,128.41015625,125.39453125,3666.843924281064,3157.207677726819,1514.4994599260385,2596.225426940604,3329.0570129114058
138.25390625,146.26953125,155.2421875,162.4296875,10452.731849519389,5679.262885736153,2766.8930407550797,3275.0368266413307,3309.936528367136
125.79296875,120.4453125,137.046875,128.83984375,733.5326652675349,1398.0490276285584,1623.671237559269,5331.209716615419,5680.11248196377
156.453125,146.8203125,148.60546875,148.69921875,2418.611597654558,1386.483551311853,3124.389552457742,2830.757339840564,3081.2617105429485
131.140625,142.3046875,141.03515625,147.93359375,4139.293366639407,5498.230380041461,3261.6876158287578,2533.707180452104,3082.7938974480035
125.203125,125.21484375,142.79296875,140.6640625,5742.116738535118,2872.547549977596,2035.2065600548412,4559.3314366945815,2516.3814578186084
138.46484375,129.65625,154.109375,152.58984375,5597.405347722626,2103.950445529408,1142.7970678762754,3107.316560438282,3615.938946177893
135.67578125,141.46875,120.9921875,125.5546875,7592.066718908069,7891.0244698181195,2016.6427495204339,2602.426710882427,2862.8785308657434
146.828125,150.77734375,149.6171875,151.4921875,3108.421297278765,2301.081623311483,1641.521256888555,3565.098482614059,2895.0463800962534
124.0,119.4765625,135.359375,138.48046875,3722.2489166671658,4507.317569168139,3305.6706262389525,5696.714464185586,3054.855565631371
140.15234375,140.859375,149.93359375,147.40234375,2497.3764609873515,3083.6920690131874,2654.956748142152,5428.648145248008,2765.8182420278736
138.375,126.66015625,136.328125,138.34375,7046.380126663785,14321.35695070305,5191.335086429877,3016.941832990055,3120.131279834965
128.625,149.71484375,153.1171875,145.0703125,2500.9411585625458,3117.9771638955917,1666.7072898409094,2692.3660349074353,3921.0053521025166
145.53515625,100.92578125,134.04296875,118.2890625,14366.091436824281,16102.654632512013,7500.453461704892,2897.149923816287,4766.14244343329
235.0390625,226.73828125,167.95703125,125.8125,99543.16486669132,17067.057689699217,4097.426284501909,2298.733738438357,4435.524069559472
48.578125,58.9765625,109.94140625,167.86328125,107276.49549701423,157639.76767163942,55002.51988990212,16706.378504664848,4904.080671685558
128.4140625,125.15234375,150.71875,140.1015625,109441.89441966993,80523.7079357699,48557.10363396546,8616.688955989684,3094.2287838880984
170.43359375,164.41015625,160.9453125,161.17578125,6530.187782707673,4525.272968139838,3157.3048299920274,2451.0989435476317,2168.476917835474
166.5703125,34.29296875,182.65234375,17.25,788351.5052921618,295374.4712085774,63503.03648825578,108072.34757807618,18471.049960053104
165.58984375,122.33203125,169.05859375,155.1015625,112357.59003526892,130791.15169076051,46796.06857375996,16546.73418624588,3031.183760026368
132.09765625,120.01953125,127.609375,115.7109375,2117.3375072169065,5617.17311892424,2418.47500002221,2157.2158731629347,2043.9612349960205
135.71484375,157.95703125,145.85546875,165.5078125,5675.537896832022,2866.7465625599484,5507.429047174308,4605.654581681111,2466.0568340576106
121.1328125,124.4296875,132.09765625,143.1328125,6257.608483045359,4975.9114785922375,3046.3140781693983,2930.051591297064,2277.9007806389773
130.46484375,122.08203125,145.52734375,136.50390625,78063.31103041189,87305.57877824083,18896.99569799386,6369.925668178184,3027.2367436458467
152.0546875,147.09765625,162.37109375,152.55859375,19394.167284258423,8230.004554929761,5534.128168688159,4050.486686325259,2298.922389812589
161.640625,153.6171875,159.72265625,64.92578125,116064.85797749393,75551.33188621083,28336.775548168378,10777.901827471891,3035.507708027355
110.34765625,121.828125,113.734375,233.26171875,10919.719996647367,8093.957667960515,4085.7034144149884,6382.697084687912,3169.6455912760657
209.7890625,210.2890625,148.41796875,123.71875,44180.73435672825,26194.651048015046,17085.00011435067,8487.238400806935,3474.6482968877726
47.97265625,42.8359375,150.890625,167.08203125,29250.952221549007,18880.08564312035,10145.854160832552,5588.684171469401,3425.7059035324196
199.35546875,205.625,154.6796875,155.21484375,163024.12238773808,84903.83083015421,29958.28269385649,11672.137641247271,2615.109338571956
96.640625,96.60546875,126.88671875,123.0546875,8482.369131273957,4441.19556186727,1535.7048007526764,2936.651526895592,2507.5475301753304
178.3046875,167.93359375,158.51171875,108.51171875,33538.48262091595,12357.026378571234,11106.1997509048,8855.716296630591,9193.272140470901
151.81640625,147.21484375,184.34375,170.140625,36045.33885139518,24801.648702534796,15079.672563033255,8119.368891410084,8129.390809401542
97.14453125,105.9296875,101.80859375,155.171875,28067.7781260244,40203.20673911308,15755.81932951001,11760.610789613971,2581.342910293283
148.34765625,150.2578125,148.4375,147.57421875,8103.696179307225,4329.8285253844915,8391.013316785718,4056.2252683273964,2180.763871424106
126.31640625,121.33203125,148.56640625,161.08203125,1099.0264221735317,5227.018905305073,3356.5465468394186,2772.8515367316863,2106.198303348094
150.05859375,149.51953125,144.2421875,136.30859375,62794.166454614744,74392.62844890042,21035.23731255006,17173.757243691252,6059.8191011098015
102.40234375,106.515625,132.05859375,133.8671875,107564.94621875272,162025.52178418604,46961.11422413026,12389.810100653192,2895.9056217915672
152.80078125,163.95703125,147.59375,152.1640625,34518.766410448836,40021.92381781294,19849.166622459958,7612.782262315117,2098.014854644117
139.22265625,129.7734375,151.81640625,137.28515625,25508.926934066436,18383.576163512247,5057.987444170487,3740.357095859651,2235.591242719175
170.62890625,168.98828125,144.22265625,156.07421875,8907.887149376453,6304.762376766428,2146.3191313112306,2279.6806157665187,2131.243146191041
105.4296875,109.09375,131.86328125,122.95703125,18070.453275288215,6262.60450982418,1361.3881067823943,1602.65965262699,2120.1621770618976
140.0859375,143.3671875,146.94921875,154.6015625,7489.501603361501,5379.464703109605,2457.6566308192714,1976.92330684346,2757.415164258122
125.5,130.7734375,145.00390625,164.01171875,157344.4397704163,61909.18492314815,9691.033106587627,13226.91352833626,5094.603529377078
164.58203125,145.6796875,161.54296875,127.68359375,3507.4057871787513,10135.806198123992,2958.5954950868836,3574.692479808148,2986.9708142241066
138.171875,135.94921875,143.83984375,145.71875,7742.045958155757,9219.823662502466,5376.451416809743,3517.633667609635,2331.8501556714355
131.203125,134.5,140.5703125,131.67578125,19915.857062044353,11697.168553227759,3840.254039724993,2767.757287705747,2190.2468144984678
116.203125,126.66796875,123.734375,143.890625,9317.042054621856,2417.999775146879,2078.039007901858,3869.8575097268786,2808.729634176383
155.40234375,163.91015625,149.66796875,150.4609375,6220.018101748585,4569.264017466152,2522.1089136072605,4367.996534446218,2476.6906588636393
147.93359375,130.92578125,150.62109375,141.40625,10015.856187775715,5163.173463967212,2978.7616040441053,3187.2417993384265,2173.4657824244596
126.015625,118.72265625,140.6015625,131.1796875,3227.524600020412,5778.829877259096,4336.793523793924,2141.9084101421463,1748.8414168484771
144.12890625,150.4375,148.609375,156.03515625,6981.803059897943,11029.044652066887,3021.189866361842,4296.757698114349,1845.8729261904307
109.74609375,130.078125,126.69140625,153.87109375,3460.6581379872277,6549.272724353967,1467.1236426958721,2003.7932135518993,1517.4996769922166
159.4296875,131.67578125,167.51953125,139.0078125,51215.49202033408,91703.82882428156,28281.10363131316,10378.663837671618,2268.470005935535
133.22265625,143.93359375,134.34375,140.9609375,2339.2029891621487,4613.111690052383,3662.6832107010396,2149.974033063484,2021.4839901911491
130.66015625,130.65234375,138.83984375,145.44921875,63846.615162892005,44440.615146961085,5732.372386083959,2279.2970485434876,1898.0277224561048
160.63671875,157.80859375,160.15234375,142.78515625,4801.089577579324,3626.211563362397,2016.1522555746442,2599.827151710046,2101.75764820865
106.73828125,109.625,126.90234375,128.08984375,11307.189487747248,6141.040106855173,3157.1703008085124,3259.077527180529,2047.880776080736
142.671875,174.22265625,115.22265625,141.76953125,59256.9664100556,106116.42006811939,49229.68649296472,14580.097111958192,3613.332529493271
187.25390625,148.35546875,217.60546875,170.57421875,46056.387436564255,26663.290976912278,7681.995712745431,6901.707711509405,3785.8103909439033
96.6640625,98.06640625,100.59765625,129.01953125,15247.611851915724,10304.098041869307,4912.784309571926,2935.2872244894984,2085.903202388071
173.26953125,164.41015625,178.4453125,168.53515625,7064.952455073289,2674.6337871931855,3929.2156360043646,4951.212400101831,2151.337953499728
107.52734375,122.88671875,110.0,134.3671875,2937.367362543203,3242.519244328698,2109.9366334025085,3327.4363701996435,2456.6277692771773
114.6484375,110.1015625,146.55078125,128.3671875,93996.72125256121,129585.77447613301,5724.796852578661,2921.1182992123922,3329.947293636726
167.3203125,171.0078125,148.91796875,152.59375,3217.2777092159204,5266.611789577355,2638.163718502956,2697.89742891097,2940.337652281023
123.27734375,125.19921875,134.40625,142.7265625,28963.590798356985,26884.54415939648,17472.705240538377,6744.741360343816,2046.2267139911964
147.9765625,145.66015625,143.43359375,140.8203125,3711.784573160572,3133.8666876896596,6649.427693314616,2888.720610436273,1635.2937300547133
105.32421875,108.34375,148.4375,143.859375,35331.95204958182,58867.86640992053,33847.935196157494,9051.549841787863,2171.3259860193316
166.6328125,171.6640625,150.59765625,160.6640625,4602.626894781194,13437.264603586127,3795.597215633652,2595.373087330288,2199.5072639761074
148.13671875,139.9921875,141.734375,131.5390625,125589.56090731749,61635.345384021995,9728.838406512446,3390.61599945238,2976.836864014794
210.53515625,213.96875,172.03125,163.6171875,10987.952456817111,7152.474928860178,6289.694003815914,2635.9633872765003,2126.310588933543
69.73046875,61.83984375,127.484375,148.609375,101317.71021508967,106572.5209886413,24805.13944990321,12204.16004061855,2440.997159347284
129.453125,124.9375,153.09375,133.14453125,13557.581425163837,20995.047018977864,9323.054687778393,5692.374041560293,2511.846361046612
142.08203125,151.6875,132.68359375,144.421875,310404.8504558007,109662.67003817964,11853.698049563747,4677.767147247226,2325.9420410263974
90.51953125,82.57421875,127.9375,138.46875,25544.48621454323,108573.96111914342,30256.52072362511,6320.992680580676,2290.9831115571437
201.60546875,198.64453125,156.69140625,147.0078125,24003.847233129298,5258.287703871643,4090.1019175468996,4131.788685050395,2687.968714163554
123.64453125,125.62890625,160.69921875,140.1796875,49934.36356388266,49751.92625219269,28643.05068565198,15229.853886596951,1909.8133979570562
145.05859375,149.984375,137.34375,156.86328125,4945.706689136364,7871.139371419475,1815.7881799902743,2797.3845097178964,1682.0258053656326
105.07421875,103.27734375,119.90234375,117.78125,25839.862609158063,20496.08340526681,8870.543645266094,4446.41092345427,2127.0292855196763
170.59765625,161.97265625,175.3359375,167.5234375,6860.28596003191,3029.550726166563,1488.5779672710905,2595.1432493980956,2264.8473794445877
124.9140625,135.8828125,136.6953125,141.72265625,6739.694025736399,20118.89100680327,14900.143261528425,8300.373923979489,2590.366480400068
137.40234375,141.46875,137.87109375,147.859375,5557.3160139782785,7098.239292177538,4701.594067333498,5113.428890039755,1840.765537157899
232.5,203.2578125,194.23828125,156.96875,19789.797051894395,9419.174415640473,4883.169884477797,2469.040587559143,2175.306062179119
55.421875,77.73828125,92.7890625,130.77734375,6139.136625465922,5251.826150915841,2327.335785613995,3308.2028013869685,1746.0880375089625
137.2421875,147.9765625,152.0234375,152.125,34266.6601183451,10249.694204630383,2235.426472150807,2794.3304667232433,2092.1278007263745
141.4609375,123.98046875,164.75390625,140.56640625,10004.553978995853,4906.473969894067,1242.5328794993447,2707.1298767790377,1781.8049023473816
120.0234375,137.8828125,127.04296875,135.87109375,30396.30175589249,48397.320569070456,34555.481191618535,15262.969203019673,1834.1269348729893
141.80078125,139.41015625,149.34765625,153.53125,18221.388395602105,14673.633672145826,2073.1020628136803,4251.9528035630265,1607.0533870288423
151.71484375,145.52734375,143.00390625,141.58203125,39629.854408698666,85453.62144412965,18437.880694812167,5214.555714633409,1990.1937172081493
146.16015625,145.828125,148.5703125,148.44921875,10544.646064998702,3871.657517542606,3035.6753501317644,3964.435624145467,2772.5761217123854
120.90234375,130.68359375,140.421875,141.81640625,109967.38765194043,86098.29645650579,29311.650182713325,9650.257208288853,2164.2224077379815
152.37890625,132.96484375,163.2109375,150.84765625,16243.999665017302,4411.670235365396,3207.759315678399,1692.3093843716051,2257.6293033878837
128.515625,148.140625,132.0625,145.01953125,23705.390109557513,22846.007559210793,5460.071116279394,2187.3971173107657,2013.8174489913847
138.3046875,137.203125,140.15625,143.86328125,4974.810586825896,14306.728131334838,5500.139911448952,2424.4196704606375,1766.3334529990645
142.5,145.08203125,148.5078125,149.91015625,297997.3859722174,95691.72956542,5217.426235851844,6445.392691753198,4028.587841751033
144.6328125,135.78515625,145.00390625,135.15234375,3277.977354322658,5217.054579905947,2859.2757251037656,1951.4918010524825,2129.445198543123
93.92578125,87.5390625,136.0078125,138.69921875,20983.078707468463,37113.71471761345,9540.5999069037,6012.463552279527,1800.8583969467982
161.08984375,177.16015625,143.6015625,154.16015625,3720.3478275049965,4392.281976118791,1907.2270771302037,2368.433236161979,1326.9878616679516
186.90234375,171.03515625,187.140625,157.0390625,3039.8596863561734,3430.3675811168864,1872.4948241493569,1525.623196904317,1680.4962161698163
107.0546875,116.70703125,112.12890625,132.5625,10957.447987795851,30594.77061639362,18037.422067224943,8761.294439535533,1588.5937718637174
131.3515625,128.23828125,136.53125,152.15625,5716.078961551153,4616.797781828858,2539.605865800071,2543.486347694974,1613.6691936949492
146.96875,153.20703125,164.2890625,136.4453125,4919.071701470894,2790.5562254712213,1709.1330155338208,4500.048682541256,1861.903181298086
153.12890625,139.39453125,146.78515625,152.21484375,2584.2733799551243,5025.029676594038,16382.239955469262,12069.303304432302,2385.7646420271085
116.453125,137.34765625,134.2578125,151.609375,7877.803518400371,3628.4439739941895,2176.3177942757525,1584.8431662589264,1395.451988497759
172.80078125,161.78125,155.76953125,150.46875,8970.633870467185,4300.6893942155475,2626.384458258067,2296.557031987644,1865.723844411486
124.68359375,120.4765625,141.77734375,140.9453125,191468.52735544238,142602.47244149653,47893.785011825916,13144.36271687227,2303.4996435900403
130.69921875,127.82421875,142.22265625,130.89453125,5623.487790732348,6905.189948299369,2328.6351262971657,3145.03823498221,1682.8479359296782
143.49609375,169.46875,145.515625,172.94140625,6324.13558689609,2968.28057609474,2175.0824442655626,3054.5130000206364,1465.4777552994399
144.48046875,110.97265625,162.64453125,124.8203125,3427.9602922230656,4159.250689575735,1126.804822969249,3239.2107092342367,1492.9808807632521
160.26171875,143.51171875,149.73046875,145.75390625,6352.64327673893,4713.919176436159,2657.6130903950043,3655.3249730334364,2367.610799789188
94.078125,129.50390625,117.23046875,147.5703125,33965.229731460466,28384.07922462333,17932.460072036924,8291.682727172141,1881.415567413847
195.78125,260.1328125,204.578125,164.3828125,13624.795495563705,10651.590100851941,6986.895883520389,12975.53520599861,4560.384427974926
121.28125,101.94921875,134.62109375,167.42578125,7275.746687393938,2789.877587050238,3698.2245485607887,3852.208814389731,859.8101431976771
171.32421875,164.48046875,161.89453125,125.90625,4608.246238966595,1986.6791024202887,1756.2882185592964,1614.2447505284533,866.6298012660886
106.83203125,144.5859375,120.69921875,186.69921875,4078.865942973126,2978.016718287954,653.3388167212947,1614.5625880159064,1116.4192708069809
177.3125,163.02734375,169.0390625,133.703125,34162.42024231105,1864.8171386742265,2675.3741094381403,2675.6033170500887,1111.5307955137046
148.0078125,154.01953125,166.59375,160.68359375,18505.32583622901,2764.6090025715193,5112.168614462938,9272.163800731176,1055.7557579618913
112.43359375,89.14453125,127.78515625,135.0390625,1953.5861429114668,3190.4300575766456,874.7938092630033,5048.415364173417,946.7886393679116
99.57421875,129.8515625,115.28125,146.62890625,6561.832282272217,2740.0926016028743,1828.5357604257722,3015.309680023919,1383.232605845761
185.53125,161.86328125,179.515625,155.91015625,52393.93572988243,29356.023340528584,7207.045206883195,5251.159885607283,2471.291205131338
146.46484375,164.31640625,142.38671875,163.17578125,45227.36135482174,9093.787660253805,2842.8454370048385,3586.741848175293,1324.8458398225134
131.59765625,130.79296875,154.2421875,142.91015625,3120.4070373411196,5366.810191495747,2209.965320638095,2186.0614333936187,1115.1608139733512
118.1640625,30.50390625,123.01171875,117.6640625,26247.69859201194,7887.637650999318,1741.7822025746045,5506.822710964945,1008.9787965230028
135.72265625,228.0,158.34375,154.28125,37212.028536300655,7443.294497877594,3176.402592212179,3854.120067975384,978.9373376225033
143.65234375,145.45703125,132.140625,155.08203125,19839.638888228248,4467.176764678444,1893.9092823738752,2144.2134484421044,902.3897567124111
185.27734375,61.48046875,184.5625,37.81640625,29903.896386463548,10200.07252709736,4360.6462293182085,2896.9071633989797,971.075844456178
108.99609375,211.25390625,141.2890625,275.48828125,23674.379128630135,17159.768718513056,7538.132231985346,3142.246727494504,1103.2766101330346
180.96875,169.171875,190.0234375,145.55859375,10943.795608521114,4347.853443124744,1377.125417516032,3358.759337635758,1061.349603306166
127.734375,161.55078125,72.7734375,116.16015625,39405.36011454892,1406.3840803644441,1231.815863887501,2764.5480120366133,889.2984184957495
116.65234375,106.5078125,170.9296875,199.44921875,9760.141349458661,5120.166818047837,2639.7693990331863,2356.3274056752753,1105.6169027343674
181.03515625,162.1953125,174.22265625,132.39453125,64556.999529509354,16623.61101151889,6183.567942345984,2564.8727961855666,2747.186424034836
131.30078125,154.5078125,150.46484375,158.3046875,16343.311411780485,8086.448944822737,3078.70858878925,4125.465687415422,1700.7171106580558
145.23828125,129.2890625,136.234375,125.92578125,8391.591312748755,6128.966381155996,4641.598383355076,5179.4992845205725,1413.701776299073
130.421875,147.015625,142.76953125,155.515625,6317.770974085851,25417.68760882525,1690.0873875456143,2790.93860602131,1851.30734364878
147.42578125,140.96875,150.89453125,156.3125,12138.524508384613,7491.044209718585,6303.950543611112,2955.2594574448035,1939.3563175378554
184.8671875,239.29296875,192.0234375,177.109375,62570.16072972717,3244.4005203135384,1426.5811135384456,2127.362363296521,925.1178432252634
82.44140625,33.265625,104.44140625,110.74609375,24214.687746951742,3894.8407980324973,2530.015697271362,2802.5690675048536,1245.739367750464
149.84765625,146.1328125,143.640625,160.0390625,2151.6421106621247,4320.688255616569,5065.603083867939,3423.0642163387984,1151.3361545182609
162.34375,156.12890625,169.36328125,139.2265625,4307.454110602897,3214.513515993791,1682.681147800714,4982.635429536576,826.2562806229013
120.44921875,121.76953125,134.26953125,140.125,1562.0853058440339,3837.32029550505,2545.078648367892,4232.889622918831,1095.8258144431188
164.44921875,115.52734375,144.359375,153.6953125,8762.596649359695,1893.0477302842824,2373.946927676507,2150.994215838479,1434.9090648770843
133.05859375,191.12109375,160.65234375,158.625,11345.816290257519,2631.3983731135586,3788.2037408843144,2078.2617782095795,888.9317849210219
146.09765625,145.27734375,145.390625,145.4765625,4524.996920251338,8301.470036489005,5684.839682230334,3554.1437985543093,1521.6562415867654
126.109375,103.8125,137.50390625,145.95703125,9287.996882955846,12417.28089561738,2569.356502840872,4084.423707391267,2056.8472230068046
185.24609375,240.00390625,183.65625,157.484375,35337.1918100825,4775.468571533707,2262.8003615145253,2601.0362028694317,1302.6380777294007
117.0078125,80.8125,127.2421875,145.30859375,12752.049100827593,13308.15965075713,2174.369351854072,3122.1436534283157,1273.5511389504097
108.4375,111.48828125,133.4453125,136.21875,3531.680130476415,3709.659377704263,3076.197692439443,2153.3479808389784,872.6534873489894
174.296875,171.59375,162.75,157.7109375,3486.8636290075406,5616.435636486443,862.8010930491621,1739.1388000588245,1051.1674214940176
99.00390625,58.4375,123.28125,145.69921875,13646.200301773684,5044.283294874266,2579.7682718836827,2625.4811609130857,1348.4950452111405
204.79296875,277.1953125,188.30078125,146.5,36195.74026653335,11348.376148781674,4748.701896197503,2812.648534232114,1076.9834049072247
131.4453125,85.43359375,153.15625,151.62109375,5726.361934556366,5723.283560318895,2076.090328018848,2890.9205954115005,988.6932846402599
137.0625,162.25,133.64453125,169.58203125,10774.016283109348,8147.701637523132,2111.021356746379,2274.8804865306047,942.3084961869871
157.9296875,97.52734375,150.51171875,90.23828125,34569.55326099639,13780.683578206583,8822.670588615372,5574.512689416225,1387.3602700514846
114.9375,163.91796875,148.0859375,188.18359375,5854.599335674895,5383.743630003671,1799.1930223457912,2347.8315537345266,1012.8834870827968
111.56640625,108.53125,131.76953125,134.2265625,14645.44072515122,10689.303524790264,3190.2770820823234,3743.991842833345,1607.2158815582607
184.16796875,186.984375,155.0,159.63671875,4829.070476725121,6816.9551462719255,1475.288472834652,1602.2984247484314,1301.2817676241507
132.51953125,138.3046875,157.79296875,166.9765625,24294.66360288972,6239.0117358019925,4828.724161463131,1679.2962577803096,896.0648610888823
148.46875,126.69140625,138.83203125,108.8125,11076.311063253283,6382.55062062511,6273.254939938047,4876.6339547294465,1435.6598032526247
132.31640625,130.95703125,143.12109375,156.34375,8572.79343179046,3594.592451779422,1100.9954181673884,4745.295469058439,5281.631973207608
119.26953125,122.32421875,152.3515625,154.99609375,3998.4369354835644,3612.418117355584,1091.9587079076127,2677.9504938348973,1487.4786560954883
156.203125,180.70703125,148.11328125,145.46875,8529.770839305362,3112.6173794314886,4854.112401559845,1643.249247401083,957.7517870548521
206.04296875,215.16015625,187.6171875,170.83203125,18531.93853533023,3715.60680427606,1025.8320417610112,2592.8031750455593,1480.1871001856728
92.8046875,54.375,113.11328125,110.57421875,6986.069268138525,12486.580257286294,2568.6556419031062,1885.7206754126853,1014.8200108912094
137.43359375,163.15234375,154.27734375,170.76953125,4032.7451035348863,1618.2155158815272,1884.6278182988967,1411.449277423593,1782.296204788037
140.0625,137.32421875,143.9140625,148.99609375,3451.018528296352,5961.630569218882,3041.9741355611413,3026.6995476749,1345.5684513115252
214.26953125,222.0,193.41015625,172.85546875,15392.020117517506,2605.0471502308765,2269.4810474340347,2339.4863688164164,1665.250717018992
72.30078125,69.69921875,111.34765625,131.05859375,3998.473294041443,3448.1047191495827,1459.8644768592546,2866.496584049671,1114.383595034409
112.5859375,59.26953125,108.1953125,101.79296875,9726.575832900478,3469.0083561355445,1464.7981794364177,3248.2860884794472,1094.3995553787709
70.83203125,88.65234375,117.56640625,145.609375,14017.605147622939,8567.55976310191,4283.263542727576,2478.449951414079,1887.249436181095
232.6015625,271.98046875,221.4375,197.89453125,12103.311338910129,6962.648910245938,2089.092552206715,2661.4380737021434,1593.94022207823
137.21484375,127.4296875,119.09375,141.984375,3259.0901381450044,3392.3100442411283,3748.71661080492,2745.9110600942345,1621.656459606264
64.765625,35.6484375,101.57421875,108.921875,30071.135209472122,3798.1393326573652,928.7416312205521,1509.9121952202868,1811.4807466204445
236.87890625,251.99609375,248.35546875,200.421875,43828.78488383388,11701.045091901604,3320.109998705637,3235.862834929639,1433.019229416958
89.69921875,152.39453125,65.75390625,138.72265625,8875.894300818232,16514.093147036176,3088.5572065092088,1898.5799248760206,1781.6439540846327
197.015625,130.4296875,192.63671875,135.7890625,19816.4329521133,15577.638778269611,3793.5642529663655,4019.336959399271,1726.7884480519124
117.015625,134.76171875,156.07421875,160.31640625,4248.377759116927,6193.121890786517,1252.983984654867,2873.0866323840028,1402.0180806582227
135.89453125,124.46875,133.23828125,139.51953125,3781.791398953482,4982.500108202961,1366.985664808672,2551.943964767748,1893.6887090816426
148.90234375,164.9921875,157.77734375,154.96875,8514.978112578516,3566.6882865422385,1405.396319185923,2990.883356461692,1468.928873100519
178.78125,189.0,170.41015625,148.859375,16727.146606737064,4150.447981291587,1054.5786675665108,4290.3257989780595,1626.844829300525
138.1328125,139.69921875,138.40625,151.0234375,17649.976064095503,7254.057591584885,3882.4227480287745,3156.420450116293,960.4424469832923
136.33203125,96.9609375,164.35546875,171.71484375,26586.863120304217,15479.21220526454,3709.774110608877,2081.619412914859,1214.7883034871436
150.984375,187.66015625,158.44921875,162.73046875,11882.719201435415,4322.456659586789,2622.6650481649467,3148.0196202906573,1090.263328340382
163.82421875,170.109375,138.77734375,129.80859375,66177.12262189586,7688.025371446404,2672.9395760031666,2500.7631949685883,865.5201528891766
96.41796875,91.22265625,126.93359375,137.484375,4552.586333442228,13269.291423710169,1632.4667008392416,3440.841632544692,935.4304163605998
132.3671875,119.671875,133.828125,135.37109375,9675.713182320245,20911.33542680068,5979.149799325198,5079.051013909775,771.045529654881
252.73828125,256.75,167.9296875,162.2734375,41964.27854225469,39095.3865421254,16038.325249240961,4896.772196314992,1235.527215194017
73.421875,78.15234375,166.7890625,138.6953125,44488.01638692133,8946.183940231209,4279.34543513766,3217.769136309019,966.3077331813391
82.03125,59.19140625,107.82421875,150.2734375,13998.73889055465,3567.6489551391023,2583.339780699369,2677.556275745733,941.3553533787881
175.32421875,224.48046875,150.69140625,167.61328125,26604.448281236426,16870.02737373146,8268.812988677462,4252.12079631811,2618.2139239661306
144.91015625,72.7421875,180.5703125,109.828125,18260.084781334986,9255.398889274817,2037.0320667487417,2223.0758786304787,2486.6692853606655
172.23828125,185.5546875,159.03125,159.96875,24927.11015039594,13262.194698753818,6444.422973117191,5642.397398478346,1347.3237088388914
93.20703125,125.60546875,113.0859375,153.00390625,16633.693494407642,14309.021127549237,2975.4651827142993,2696.7044435688954,1477.9144973802913
166.25,190.62109375,121.80859375,154.3046875,39882.451735542985,8605.49801572696,1428.6317976764888,4163.827484835911,1114.444905928115
124.140625,80.9140625,192.2265625,139.0625,61318.910320510906,19343.19845600409,1068.4728186415955,2203.6700766405097,1651.41741440054
195.9375,195.02734375,164.0703125,123.0,70807.05601632404,23985.11350321606,12919.668388046532,3669.8600658154933,2132.1119822673
61.34765625,22.73046875,50.85546875,104.90625,34326.82065429556,15585.67103714271,11510.32931721391,6529.853398516688,1726.9295267569569
224.06640625,271.42578125,314.72265625,268.23046875,29546.95584781646,4831.419308216172,3962.0966252373496,4382.103170635197,1735.6662794628276
125.8828125,115.6328125,28.0078125,55.01171875,26435.140322083935,8062.3857133629335,1357.7622413602535,3767.3614160472625,2549.695282385599
83.1875,122.109375,137.05859375,198.65625,13050.372512544724,3967.4620530243433,2329.902883570123,4336.2525342075305,1000.1991771359862
155.27734375,152.25390625,168.484375,157.94921875,4502.106533096487,7538.9801580684325,1955.3641814766843,2134.887908785845,1308.6511924288357
161.625,140.2265625,176.48046875,159.19140625,14789.70400013237,6939.384902324995,3553.634327979613,2816.985246332465,1393.4537352364555
115.86328125,71.75390625,106.203125,142.3984375,28456.05010523223,9913.661984072149,9212.214697581321,5797.420215662621,2953.489710730515
-49.8203125,186.2421875,140.61328125,157.15625,81455.13633154887,7465.725320578892,4201.010764263306,7807.188695930938,7415.422872635007
207.3671875,145.8359375,142.57421875,131.3984375,3300.06544929716,2593.9450151128826,6528.549543845602,6060.267966646961,7604.366584985246
165.91796875,112.890625,160.5390625,156.05078125,19921.934439282984,48192.6415063783,9674.726131539448,10168.231131438457,8205.401812087131
154.07421875,131.27734375,136.875,134.94921875,7325.374872727733,6841.69078933992,3652.1959141574107,5626.369013922697,10119.508740816047
161.5625,180.203125,165.1484375,162.19921875,7157.716045688052,6513.946976506488,2318.715319134458,8181.338516763159,7608.766485257546
-47.89453125,128.29296875,139.46875,149.3046875,216615.2080998028,63855.920896217285,26137.87672097415,13243.427953048724,8540.762645216468
256.85546875,149.55859375,140.02734375,139.53125,75689.99230261029,19595.440191076646,10504.104712695214,10371.892668948327,6882.4030199620365
183.5859375,124.81640625,153.6640625,151.6171875,8119.530272916441,8096.043044742404,7865.252097908686,6521.542273444725,7744.608733475272
126.08203125,148.5625,153.24609375,150.1640625,21526.313009892645,56269.36630258082,11082.247918303125,7390.768110348234,8112.94469328195
173.80859375,150.46484375,148.91015625,141.3203125,3836.1777576638806,2835.5603634682557,4261.83239402656,7493.672359685874,7053.3119383064395
134.9609375,133.57421875,150.078125,159.9296875,3291.548507202502,3014.3178017196055,4372.154742381372,5554.084978735037,8359.22468660322
131.453125,148.12109375,142.15234375,142.03515625,26069.765859460935,15093.018067398682,6810.205279351864,5757.919790383226,6892.84262385357
135.5546875,143.3046875,155.109375,161.6484375,37352.17794792837,37252.79430964763,6106.782289360145,9159.654501130497,7241.164914343763
155.296875,169.3984375,148.0546875,143.55078125,8878.068551961793,6526.769566213595,4000.878794864385,9137.117594286054,8944.651256167155
105.640625,107.1953125,144.90234375,140.2734375,77255.05943073388,36188.86989419929,9891.88044097599,7742.953244271466,7310.356528395489
157.7890625,153.0859375,137.74609375,134.42578125,11264.066718806265,4505.768831963585,3072.896321604767,7943.281963114907,7734.362053830424
201.890625,146.28515625,172.92578125,162.5546875,6935.247028028644,5711.860302333534,11824.918733962862,12119.416785772151,7746.510165465433
96.55859375,113.54296875,129.0078125,138.57421875,11957.089909669638,5419.920207649538,3169.7060091721855,8925.609174142603,6998.348548507577
151.07421875,167.1953125,154.640625,157.80859375,14164.896459017269,9138.504725002907,4606.561688549782,11584.752388509129,9260.912330362191
148.92578125,151.453125,152.50390625,148.51953125,2136.6826254200764,3726.707087547591,8708.328276109314,6855.863213799595,9436.023238054218
137.17578125,131.0546875,144.625,144.88671875,18724.72658089519,9991.030880732025,8347.503246901993,11902.985465860906,9919.987404485917
135.24609375,151.90625,148.7578125,144.375,2136.2911958573172,3373.7977319894917,4824.954591904898,8792.122095594135,8154.687410859737
148.2890625,106.7890625,156.38671875,159.59765625,5345.679978422716,6236.4961235537,4778.195953696446,7413.376738626188,7545.137604066475
141.8203125,160.1640625,142.484375,153.41796875,14058.818064895315,2780.4856950730355,2623.5339337608207,5798.184433546379,7515.808074003772
219.37109375,157.13671875,156.515625,157.91796875,77505.699233296,9229.825946879771,5681.3200894738475,12143.620362520198,9774.72518329168
47.09375,50.453125,128.64453125,126.0703125,12262.73640821766,7710.575160248652,4071.6455549104535,10078.36313084385,7285.121858364646
235.06640625,229.3359375,137.859375,126.96875,8682.157479944304,5692.361852287011,2505.82136233122,9942.150951403097,6770.4336644142595
62.328125,135.078125,170.73046875,171.5859375,14605.679093081202,5176.966855781624,4694.152347567968,7034.039827961458,7236.768003689125
128.90625,146.640625,145.44921875,170.12109375,5650.829488284703,8976.485302678948,3501.342893286407,7585.264198458148,7628.782132551305
120.0859375,146.41015625,148.921875,136.375,87008.38686084414,37321.22480570476,18733.866142266445,6645.558978247756,7736.050141236437
160.81640625,131.76953125,151.390625,138.3671875,4901.165730354174,3818.1259515851248,2517.8093134712126,8987.794957074675,9067.81731856079
160.5078125,153.38671875,136.5703125,150.2109375,3043.06470778368,5915.078506510879,9384.312672712107,10499.308050957765,9123.076796093364
133.27734375,146.6796875,164.72265625,146.4296875,30600.60918122996,51406.2710613564,22055.284419076346,19759.329456116022,8476.657571369835
144.04296875,116.02734375,148.05859375,152.16796875,17751.44112691689,7404.100843450833,4134.251471900023,8022.516869224352,8500.359482618385
154.1875,172.05859375,141.47265625,157.30078125,3051.136106012751,2966.8698013648936,6575.177489484755,5719.483404547856,7781.103882408957
140.58984375,145.64453125,154.46875,132.3671875,4772.338072557362,7724.0848392823455,2877.1618163913467,7620.937743264336,7259.716002882526
165.09375,141.42578125,152.80859375,177.48828125,4334.321298241979,11654.856160445759,2168.1544859672576,6139.833657807918,7740.727606625576
107.234375,122.63671875,132.41015625,122.44140625,10504.841711324527,4204.247165638682,4690.066998843714,8693.97930576426,9437.320545149843
128.890625,158.47265625,152.2265625,157.484375,5384.980792108262,5459.976427043657,4188.490169627537,9180.929871753684,7148.33505354817
161.77734375,141.953125,148.21484375,148.859375,8923.898429752904,6667.101648165208,4754.641359712016,9445.76478782975,6668.783294982485
144.26953125,127.5546875,152.921875,145.12890625,2188.9435493494284,3436.667971355757,3275.952063951333,7290.249009701759,6950.965166859577
113.953125,143.296875,131.265625,154.56640625,6577.972181648244,5559.601872935882,7427.234023273584,5663.807418771002,6978.19498120766
192.72265625,145.42578125,167.44140625,142.60546875,8607.596453060383,9283.032365527117,16227.690229060945,6584.533424775468,7478.906941441196
118.58984375,148.3203125,150.2578125,166.2734375,3650.7146211896575,3557.179527508966,4509.550757122952,6445.626238802337,8333.264354114319
174.015625,132.359375,144.234375,135.91796875,16406.255923490553,9390.323990992469,8381.155728263666,10732.681004916567,8559.463780748705
114.25,146.12109375,143.60546875,140.57421875,11811.326351992237,6806.922508790534,4832.585684508123,5650.555608943658,8035.591315433667
145.1015625,156.28125,154.94140625,157.09765625,6761.927211404617,11605.690773609716,6033.719899217598,7960.671241165122,7386.363011586761
171.12890625,181.1875,134.82421875,130.2578125,10386.95046935002,8025.343223678663,2990.551567991022,3710.167070243868,5746.634459662199
81.5703125,72.31640625,142.375,144.66015625,7766.116832005306,12259.214003166062,4052.5997717451205,5329.352583352501,1988.5896939371323
156.45703125,159.38671875,147.3515625,146.80078125,18231.003620233016,27621.769871666504,13581.809877135212,5132.087559981477,2506.6812635986716
144.26953125,144.8515625,151.09765625,156.2734375,2341.826040675357,2872.547816711008,1868.7463873305055,1798.6767644411675,2187.470178453719
139.875,143.546875,145.56640625,146.3984375,12457.908552132289,7064.042820082622,2875.392700173921,3442.751361252502,2659.5716230899498
121.0,126.0625,149.828125,144.36328125,3197.13201626462,2349.3669183142606,3431.200511528938,3499.059788979102,2459.035624683146
160.9296875,158.08203125,154.4609375,151.98046875,7350.5939013046955,8611.089408629603,3987.091868196995,4061.916447323309,2587.3296335916775
136.1796875,136.6953125,131.10546875,145.265625,32474.178356482524,39778.55839689311,27233.91237753726,11936.411658941064,1956.5680650353986
163.17578125,155.82421875,181.7734375,146.67578125,41685.01091530612,49389.29234730451,8807.725047179176,3603.841435258534,2568.098164913753
147.55859375,147.30078125,159.69921875,154.8671875,8080.226374487913,6237.032079818585,3157.137859499888,3112.1412749774026,2712.0680757318346
120.2265625,127.07421875,110.33203125,143.12890625,10431.762034500814,3413.7983431129423,2771.3679566915057,3598.5726800694833,2458.6476955514663
151.1875,144.3125,157.46875,148.75,4734.52717208972,3581.7216548935266,1930.1697921385046,3719.4485741199196,2226.5590937654765
137.265625,143.18359375,152.37890625,154.640625,746.0955292219398,971.4600480577718,1359.4043738112498,4027.570649158545,2623.7177813696703
138.39453125,138.12890625,147.68359375,144.2265625,1855.0133177216494,2040.3345269953738,1875.0490786166383,3316.2231730681287,2320.217554604526
170.71484375,172.3828125,145.1171875,157.60546875,1474.734900641558,2367.4800866750693,1749.8709741060811,2031.9007569387204,1989.7537575541555
115.2421875,118.80859375,152.55859375,146.3515625,2297.1882304017554,2089.030876841242,1136.4481323739628,3047.533044326501,1844.2179488478898
140.0546875,138.95703125,151.65625,150.50390625,2274.267927685475,2577.3094591434115,1041.579507583558,2357.238839169301,1861.306568247914
139.7890625,139.44140625,138.78125,130.7734375,8890.28242065871,6916.558645740416,3755.7980764712493,8470.67991803769,3141.5975557509055
149.671875,152.82421875,153.953125,155.76953125,1675.4144897598987,2240.7469724768766,9039.412000192864,4270.935251640602,2874.058855926453
116.2578125,120.66796875,144.5625,148.44921875,7264.840727074621,9178.860283827518,4088.529623709148,5474.388500233953,2692.671271507377
141.34765625,145.0625,146.56640625,151.84375,3718.288777424789,1249.1655881935967,2898.846093658871,7097.087473940567,2635.5243022974946
192.546875,175.078125,121.9921875,139.0703125,32700.841463247707,43928.335320465165,26624.762615650783,7330.589681853472,2535.876913236355
123.29296875,126.78125,192.1015625,157.73828125,3447.3150032381022,1801.3008464733275,3144.2929308213907,3953.712651650296,3127.6617731865026
154.734375,151.76171875,145.10546875,156.5703125,14391.127237817067,4326.888520177325,5157.255606609562,3737.0771243155436,2626.8052176151255
97.16796875,107.16796875,136.00390625,141.37109375,65213.42685865744,174235.7754636189,80196.4639875473,11399.43233934683,2392.21245602248
140.12109375,147.49609375,137.44921875,141.3671875,33038.64212305939,56376.79968534649,17441.94059552692,6641.789426047864,2007.2420753929446
144.18359375,134.86328125,154.484375,144.12109375,4858.655236428718,3593.9280971875146,2108.7958195206675,2674.7629916329743,3272.840670285815
164.90625,163.8359375,149.7421875,156.859375,1780.8246164420448,2195.202217594995,2598.4266773331597,4603.327033966854,1881.8911111653474
121.02734375,116.1015625,138.9375,119.85546875,7859.328450910579,12526.093684741267,5478.347733266548,3883.308050156024,2194.5588271762495
154.5,166.984375,157.58984375,179.70703125,2512.5870625435773,2569.4212399030043,4786.539130436264,2438.435119365082,2245.639908279327
137.06640625,137.48046875,143.796875,147.12109375,9552.7767917409,7368.490417492196,3167.270721296204,3968.345281497949,4107.991193099987
154.6796875,149.625,166.7890625,158.73046875,8178.4227336062695,4838.4857089027055,8123.0212421669685,2828.059540021975,2404.582946948269
140.09375,134.5546875,140.6796875,139.3515625,1448.404462310491,3445.1703710599904,1625.3939322224558,6027.382665802987,2560.9592979296754
153.9140625,144.828125,146.67578125,152.7578125,8867.764062490907,9099.835934644125,7243.776101872869,4093.4591422338344,2362.450324299835
137.59765625,144.01953125,147.640625,141.89453125,1239.0703119598568,3059.8871737234595,1714.4209546632535,1962.464974742049,2305.153582113015
134.00390625,142.0859375,154.62890625,152.52734375,13879.36317218938,16322.866266421323,11610.646882660902,6487.269535600758,2345.621899993693
156.171875,139.94921875,150.0546875,148.6484375,35061.98403736722,31446.942779671517,10694.635172906292,4431.095211277122,2265.5468191470472
139.4375,144.30859375,149.4296875,147.33203125,5611.034233101438,2872.059982969333,1272.728855065397,1858.491416937842,2029.268261144987
129.984375,134.328125,142.109375,146.16015625,8436.01528754707,10409.845496753838,3414.461339616435,5596.649925510303,2695.5880343679396
144.5078125,117.93359375,146.0234375,143.078125,9490.248781132308,6853.33346139706,1918.6764140476894,3782.939913789772,2229.9204797392485
142.6328125,162.43359375,152.30078125,154.56640625,12215.408696900795,6671.111410122336,4831.407905351409,4411.43928686477,2178.7159489301666
139.7890625,148.046875,145.2578125,154.6640625,3220.058914645032,3689.5665945610995,1893.9384825825127,856.7433600635061,1988.8833918284427
140.48828125,133.1484375,144.80078125,142.828125,3921.6414464054146,2245.2439767766136,1591.6095555278346,2219.1498277695,2366.778856140334
136.48828125,141.95703125,142.0078125,139.16796875,803.4138489710041,1138.1033724936885,787.9034924064833,1455.7776209046367,1946.5301649303697
147.80078125,158.5234375,145.22265625,157.0,5693.953136360881,3068.9922227796105,1545.2148247013151,2729.1926631116085,2703.9792937373504
130.6328125,119.21875,157.2109375,145.09765625,4223.4722800019035,4416.798332841359,3097.750875368922,5783.744788982828,1964.571389280421
139.9296875,163.1484375,134.71875,148.140625,204987.4036502457,39426.764923650764,10519.877359129714,9597.510572353225,2448.1492018405797
149.41015625,116.375,168.22265625,141.203125,7219.159777182827,1706.430839113624,2027.4978735615782,2724.6871096544596,1951.5790361040458
128.578125,146.11328125,125.22265625,143.57421875,8320.952882568803,3476.9962927477827,2094.467743559889,4663.659450382335,2700.1897888196154
150.41015625,147.54296875,164.9765625,153.61328125,7901.018595140084,3935.439435652844,1814.9154381504172,4654.748966919279,2379.1046537538377
129.84765625,129.69140625,134.96484375,144.08203125,37416.23849760655,21071.13136619523,5859.273722457367,3360.013857897098,2221.0359363368198
311.4140625,163.125,304.47265625,160.125,15608.381276788707,3149.4909654268945,1279.9571769395027,1981.2221213074317,1884.846036936608
-32.421875,139.7734375,-23.82421875,149.01953125,4069.7653505674525,3348.1613347146526,2841.32900362579,3218.0550948137275,2174.022634157242
151.6640625,141.93359375,158.01953125,141.390625,5521.268326960953,6352.8510726446175,3615.620491113651,8730.689401011441,2886.4648403220626
172.30859375,130.30859375,184.73046875,149.1953125,38602.434754822345,45366.80651058899,7120.080113229491,4172.164646049937,2596.377772428714
113.50390625,145.4375,106.984375,135.7890625,3797.147436399765,3764.0583914529125,1875.741606818684,2245.6170905076506,1998.0178816848832
147.671875,151.69140625,166.53125,157.7734375,14639.51812264282,8866.851890001153,3222.839805069738,4236.205539287782,2717.8232980231523
138.34375,131.9375,153.4140625,151.51171875,2332.855257392936,1234.3015885399013,2190.607205059303,3041.068444005111,2971.8682000877334
148.421875,147.10546875,147.75,147.64453125,11955.993246467866,6894.089868261599,6188.329499804986,5185.639559890141,2541.7097882433477
133.15234375,130.9609375,148.23828125,147.05078125,55290.19326917208,25374.47212400198,4146.61960938513,3054.0155802598265,2368.939315931929
133.890625,156.26953125,134.96484375,157.69921875,31335.37098358045,8488.93466254611,2597.7338033579485,2673.8163012614245,2208.3110502182094
152.19921875,130.88671875,162.80859375,131.33984375,8094.403765525544,2136.868445211429,4585.074907264582,5025.7013772942455,2318.6636987159645
158.6015625,154.73828125,161.76953125,179.29296875,21137.65757203179,30216.64818086537,14743.47273181215,4700.042495259071,2199.5962921451546
137.43359375,136.296875,140.8359375,120.77734375,2467.6605450655416,10736.547309518784,4128.186330056616,6284.004611618276,2477.4506181822576
131.21875,134.44140625,149.83203125,158.6640625,90291.87580259203,49119.79193042577,8424.748014876803,3108.3208924205896,3272.7146253284204
137.6171875,142.9375,141.9453125,146.41796875,2418.933546790011,2080.973977287067,2557.386857232636,2415.7950923735275,2114.5186671525485
147.3125,143.7734375,140.52734375,140.62890625,4708.390902839543,1727.7075598311176,1629.8174600860766,6180.036883432936,2021.6652522103184
147.984375,138.0703125,157.69921875,148.5859375,6539.721054027128,5790.8977076674255,1272.8985625922494,3643.2727865920533,2053.378263000479
132.7890625,142.95703125,136.4375,151.40234375,5848.366659665246,2899.304268330916,1293.1726145730202,3912.143279817976,2001.2773755388407
145.62890625,145.6640625,162.625,148.94921875,3869.362757391211,7087.633691130944,4585.056786592062,6197.4693582237815,2093.897074519779
140.64453125,138.953125,138.06640625,143.0546875,3026.3748153303377,1445.95552332431,1254.8309296428765,4102.089773314608,2334.805338310673
138.06640625,142.2734375,139.80859375,148.671875,11924.109367784215,1244.864066974139,1668.652026561815,3345.539864563005,2102.3889757112097
132.58203125,144.890625,142.453125,150.34765625,10565.684431919626,12439.902913917193,2339.921202433519,2548.837223821937,3041.1550135280286
169.52734375,137.2109375,182.21484375,146.9453125,8665.698590982533,4478.023068478891,1181.8838655123118,2395.99640474205,1765.9206599802978
131.94140625,143.3046875,128.21875,150.44140625,12384.730761490784,4972.827136725211,3968.3013187618762,3108.223078707726,2797.751643398892
138.72265625,140.92578125,141.40625,151.9921875,7137.852008554699,4672.96277753812,4798.605120302716,3168.1981840427507,2246.2685073923067
127.8828125,134.47265625,154.7265625,140.640625,3269.818555674193,3363.117140908072,1508.9486688227319,4301.714424699344,2460.8529008958567
161.23046875,150.69921875,148.8359375,159.37109375,5145.928342362373,11009.552254915603,3419.790282411716,5597.231134325822,3209.530786566307
140.51953125,146.609375,172.0234375,154.0546875,56815.74047200377,21317.873058099318,5218.093062376254,5624.417550064686,2772.3435436512927
130.27734375,136.6796875,123.015625,140.90234375,27809.247381552916,28824.301298370705,11041.338468024554,4979.217732226837,2528.1164926131873
144.54296875,146.46484375,140.73828125,132.65625,17151.822609574403,4899.953835960021,2539.3414548129012,5760.955269306451,3216.380985906812
136.84375,135.515625,150.4140625,159.5546875,2852.3161515199095,1983.8108900024072,2208.073413540475,1701.2802799560982,2176.171101746474
151.1640625,142.85546875,154.8984375,141.65625,22673.852741107956,11321.749330430033,7944.601545064839,7056.140469666849,2711.701169559038
164.19140625,146.4296875,176.19140625,181.04296875,23671.54411614388,60066.141719850835,6600.575692734792,5570.113352613005,2583.005697400497
107.50390625,132.48828125,114.6796875,122.984375,4171.22583429874,2365.049351182879,1381.0243387431346,2159.605461941631,2366.1321979574273
155.86328125,135.21484375,162.04296875,137.796875,13060.766971219518,5785.931455594173,5154.1281092776335,6093.266746491925,2369.9216555012854
112.87890625,149.76171875,113.2734375,147.6875,31256.27294422623,21673.7111830677,9503.231380111949,7664.865848485691,2691.29471407257
179.1953125,148.89453125,187.3984375,158.68359375,8712.045945237698,11024.997522820631,3983.784351502456,5169.682471372543,2508.021495855176
123.76953125,136.171875,137.5234375,145.515625,3566.0137717871385,2666.9066612536753,1694.8722446850877,3123.7211394355118,2093.8879699188024
145.859375,157.921875,142.81640625,169.1015625,46372.11630278221,40771.90357421689,9174.302274999234,3460.1951501346034,3486.633819511128
181.9140625,126.03125,197.37109375,131.96875,8678.31805920008,5770.749346861901,1688.767635099962,2776.2644710223676,3298.8105944158788
96.68359375,148.421875,78.23046875,147.50390625,13534.921228907657,6714.288143682193,1569.8161648081646,2802.019885206759,2829.4660720280563
178.390625,167.26171875,172.69140625,150.6171875,35885.27302167012,39629.52665202827,26215.466293161877,13735.032989065949,2832.5055436919265
91.4453125,103.6328125,144.234375,136.30078125,17755.636227971172,14049.434757121846,11064.000356188082,9856.933949119919,2666.7840660381935
161.65625,143.87890625,169.63671875,166.03515625,85406.74190827955,81038.8573568846,24714.725097110128,10896.962555393167,8052.9272359443485
171.91015625,153.3125,151.06640625,135.6484375,12223.2803942049,6218.14280889067,1761.789376240613,1696.2047593795655,3048.73916735069
111.80859375,140.109375,120.87890625,144.36328125,9475.107825617883,6046.027981480294,3611.487119380354,3261.948718758889,2146.7178493889987
117.71875,146.12890625,129.51171875,143.28515625,7061.943116024419,7750.535446611502,2375.6600250079055,4508.991636835022,1944.1754900955389
152.8671875,135.53125,160.9140625,151.97265625,4833.148724281359,4058.014100314529,2599.566673007652,4623.153582280257,2641.098576315342
143.03515625,135.06640625,146.1953125,157.78515625,17270.881000367084,18299.25281397632,8589.707170601341,2866.424830399112,2876.5277135294828
104.75390625,125.9609375,138.17578125,147.32421875,8038.532648317058,7012.260994586502,1533.7245171422662,2643.502456051015,2372.420010920968
210.484375,175.7109375,186.6171875,167.54296875,8449.770420401013,11278.863461122295,7745.944214853309,6485.971629128362,2791.2605138909585
107.3203125,121.859375,121.5625,121.41796875,3492.665372747398,6046.471409088019,3892.1657256505314,5038.959746610155,2915.5165314047285
174.61328125,157.66015625,175.99609375,159.7578125,10594.93492125399,6003.105884018833,4449.032826867125,5372.524430669182,2816.3377843782773
128.46484375,127.04296875,137.32421875,133.79296875,2328.256209544755,7199.243687507249,6166.054995765498,5205.65441409967,3047.902703716986
144.04296875,154.30859375,155.21875,162.05078125,41662.85131774592,39442.90395033444,11351.773296260431,6037.054348902882,4276.608297096902
127.9375,138.99609375,135.53125,154.140625,5791.9786335215795,1787.3367761385348,3853.346171139252,2469.732679754994,2863.736909291698
132.31640625,133.94140625,154.82421875,136.6171875,47307.87828311816,385561.2706352584,26089.37551679372,3308.438744310124,3220.7439527824445
148.7734375,158.5,134.77734375,162.8359375,15074.039576441439,7830.804312440477,3615.0126743270785,3251.3473442554523,2641.1307233521998
142.83203125,130.76171875,155.7109375,135.62109375,6238.995694355916,4203.068506323027,715.202127004689,3846.61745455229,2576.5612267841534
126.21484375,144.40234375,124.14453125,151.953125,7737.459862681529,6320.601337122783,4088.9894384270874,6183.665808560394,2523.02337225478
147.63671875,130.96484375,168.21484375,148.49609375,2277.159430068391,2954.0094952944855,1935.9272609304112,1601.763935681165,2337.2893533716974
154.85546875,147.94921875,148.3671875,144.42578125,15052.563366742172,22007.99513404043,3785.1957719372326,7013.59384434726,3671.1707646608825
159.72265625,151.4765625,157.59375,145.80078125,3409.391747296737,3946.293322091362,5011.928856430872,3149.5138922779397,2668.929889987637
109.97265625,118.234375,134.19921875,155.5859375,3745.845590707268,4089.3661084263254,3487.7570419720914,3771.67153966374,2605.7155775441433
166.21484375,153.44140625,162.50390625,144.12890625,2553.0333711660082,4152.30022899028,1571.3167126759104,3621.0220435529864,2260.572899310978
126.9140625,139.625,136.27734375,141.35546875,21318.598160811234,5010.310566176386,2625.17155382301,4620.31623798535,2348.157792655667
155.9921875,156.51171875,144.40234375,154.390625,1847.0474288749047,3217.598631380436,2989.6736810689363,3359.0206073880713,2075.1773084033853
128.96484375,122.81640625,163.59375,151.06640625,30101.359573380127,44644.97795909902,13485.113398320156,2867.401909011107,2777.3466370533297
147.9765625,155.45703125,134.1640625,141.19921875,5558.3881557418845,4801.704733343265,3860.473087388643,2689.825544528028,2954.3026451029027
141.3125,139.74609375,159.87109375,156.734375,2172.539914761558,3485.1849350414577,893.0147872237771,4066.485255184092,2844.9885518792235
138.74609375,139.26953125,136.3359375,142.421875,6381.4519409378645,11132.701688838551,4725.312372732989,4511.143664944359,2580.1574589646916
171.41796875,151.30078125,177.859375,162.6171875,1867.2519311948047,7386.408479937227,3584.200476776229,4951.214325087762,2341.6565659775006
102.16796875,126.71484375,117.59375,131.36328125,48170.01688888838,108390.98515453866,47648.47912119292,12237.00770902961,3057.422937619729
165.41015625,155.2109375,175.1328125,160.8828125,5593.3552897585,10497.93153513808,5462.379880215938,2549.280911320103,2513.583964851101
113.32421875,108.74609375,134.328125,139.3515625,19919.51104803614,26468.348890271678,13985.865402742973,6178.092588721502,2460.7344068672587
175.43359375,193.56640625,143.6328125,161.03515625,6157.341424332459,13599.06436194977,4765.803166330917,3800.6213042785744,3327.138683323811
104.6640625,125.46484375,131.15625,139.12109375,24506.832005103002,9225.123635157517,3765.6838195132173,3423.4621785800628,2779.505118570703
164.484375,138.90234375,177.67578125,153.81640625,12160.879162427107,15052.472449771485,4766.7411904458195,4653.052617666231,2683.0167213781206
146.05078125,133.1015625,143.015625,141.1796875,5730.176416338702,4970.809218001025,3831.6092953783286,6240.641691900049,3069.2484315320494
131.00390625,144.15234375,134.33984375,147.921875,4947.425287978225,4107.31124907212,1214.5625315748578,2184.362702094428,2408.748109775265
135.21875,137.125,156.328125,146.03125,7561.359303874905,7596.5615906561125,9545.783533813836,5585.195900058645,2316.3310990539753
153.8203125,141.12109375,157.3671875,142.78125,7218.688939545749,17548.515863971264,7853.259002758111,2499.207498999658,2054.909318972302
140.6640625,145.99609375,142.1484375,153.87109375,6751.129261367303,5091.980505611655,3867.674115257787,4068.2401215544705,3292.3785800375817
128.421875,138.5703125,126.13671875,145.19140625,2641.4698787057105,2351.101496265524,1761.858513764576,3911.4961226351807,2413.8020734202896
154.5390625,141.8515625,171.96484375,153.53125,6914.336900065198,3140.847414997257,1554.7803406593214,3392.3023248398367,2459.3339925324394
145.265625,141.99609375,139.21875,138.36328125,3882.177341674851,2822.6226745694457,1521.7358046912195,3084.8631049709634,2571.1093815330614
115.3125,148.01171875,118.5078125,159.078125,21742.95660681835,25778.694344443174,17272.845998485667,4900.597985179565,3913.961401963068
191.234375,149.6875,207.609375,162.2890625,4084.2906300196473,5410.681348579277,2024.3487115478488,4052.6265095581275,3321.788801889264
120.26953125,120.546875,143.06640625,134.4140625,1119.5321872440659,1528.7251123324536,1167.0067156002856,3642.4300857498292,1687.304441799694
137.77734375,143.59375,145.58984375,145.5234375,8394.024647715865,7414.008871411787,3722.5309180783215,5877.85403202755,1963.7761781128154
153.1953125,146.6875,160.3125,156.4453125,9614.978855947365,6969.539949142554,2921.291038811528,3678.5712391395214,1729.8033308256543
133.0703125,135.43359375,145.54296875,150.46484375,11611.120636279658,12177.854354380368,2204.5829966711917,4204.250361239315,1811.6500271804744
147.76171875,151.35546875,156.0078125,162.68359375,6263.589934014858,4229.158533864861,3953.8027578692163,4380.855696895778,1746.4637772869678
194.55859375,184.50390625,150.609375,147.90625,19318.87955949645,9342.398991531592,4579.579674099503,3903.860375369517,1861.0482286471552
95.48046875,101.9453125,157.58984375,142.3125,4303.940244541109,3754.998264261043,2461.3111263930336,3645.813326380813,1604.5201380605686
131.63671875,128.61328125,133.20703125,143.09765625,54926.75087494987,29571.214466433295,12927.231021003987,7295.131774579203,1631.474592315189
133.3984375,144.2109375,142.91796875,146.30078125,2734.043430027189,3140.0212597908976,5558.8273555844935,4198.089121754571,1540.0795418140806
121.12109375,122.53125,150.91015625,144.46484375,20023.96205065759,31477.982650223545,9912.808452480318,3307.531256195105,1639.6349515884249
172.23046875,165.3671875,160.04296875,161.08203125,3591.8076591540644,5199.926976806427,3170.4350625332713,4368.904100180203,1752.9696248079927
142.07421875,140.41015625,138.06640625,142.2734375,8774.820597640719,8286.4874064524,3842.586419492345,4614.656711698535,1348.7795895084141
193.140625,191.19921875,130.83984375,151.640625,2089.94583700097,3244.3383338498893,5254.616823559703,7581.251674793704,1864.3999792125326
103.171875,103.97265625,169.46875,145.83203125,14653.010940243883,4159.94823478197,2997.221968535683,4265.3619767838,1657.4450831958038
125.98046875,132.30078125,148.78515625,154.6796875,8201.51122262474,4258.573350018459,3845.9914515210166,4607.666719176306,1736.0714594033843
161.91796875,155.46484375,159.92578125,150.96484375,7446.0727130547,4550.883043555043,2300.1066777797614,2257.1313782257425,1882.1172247022562
209.70703125,188.26953125,144.97265625,168.8515625,18233.254824969255,15910.989205240166,2855.022392478364,4827.5674486561575,1542.0995992702092
70.203125,100.44140625,125.63671875,108.8671875,6736.557521429629,5400.9989275734515,1416.9533820904471,2817.693357127372,1655.4590497831887
134.2421875,125.24609375,166.86328125,155.62109375,6336.59042108134,3946.236382161407,1530.1778704641415,4701.259829664682,1575.9893242533885
135.01171875,145.1171875,144.72265625,151.0703125,2958.4202784042704,3429.6968696629306,2668.477024557006,6018.376299787185,1809.8989198715246
150.1171875,135.3828125,144.640625,147.24609375,4528.206393819625,4493.298239087928,3973.324744785118,3441.888258323614,1523.4888712012462
159.84375,161.06640625,161.33984375,166.49609375,1699.4028093472702,4033.6682902533985,3300.3167799694224,2996.969826288706,1393.0122612990408
80.75390625,90.5625,144.47265625,127.9765625,32487.22238744282,15670.262609688789,11328.480002704182,3961.6950214269405,1570.5047772166704
183.8671875,177.05078125,140.9765625,149.72265625,6974.12201866141,1486.0450967049178,1479.1419024128945,3283.0818423291066,1478.3268011500095
140.8203125,143.18359375,156.45703125,153.98828125,2895.9963004822766,4620.675339202082,2722.7298813557695,4937.470066963729,1821.5922815462134
141.3125,143.1875,134.65234375,146.87109375,2919.008441562388,4758.841520957302,2723.7659630919698,3281.7781085613515,1301.6689017121566
127.6953125,128.234375,142.4296875,143.56640625,24914.07942233373,18499.135760466354,6452.308785746662,3540.350460062464,1611.4324205894623
163.6171875,158.2578125,151.671875,151.35546875,14052.824911757263,6750.7431703983375,3840.983246587122,4805.479334703703,1552.269707552854
